; The collision integrals Q_{i,j}^{11} are exponential fit function obtained from 
; Transport properties of high-temperature Jupiter atmosphere components, D. Bruno, C. Catalfamo, M. Capitelli, G. Colonna, O. De Pascale et al., Phys. Plasmas 17, 112315 (2010), doi: 10.1063/1.3495980, Published by the American Institute of Physics
; 
; 
; Bruno et al. (2010) is computing the collision integrals Q11 by considering the parameters from table IV using a phenomenological potential introduced in Eq. (8)
;
;
; 1 atomic unit of square distance = 2.80e-17 cm^2
; 1eV = 11604K

2.80e-17


;        E             T             Q11
;       (eV)         (K)         (a.u.)

0.0862174       1000       90.2992
0.0948391       1100       85.4427
0.103461       1200       81.3513
0.112083       1300       77.8646
0.120704       1400       74.8635
0.129326       1500       72.2576
0.137948       1600       69.9772
0.14657       1700       67.9677
0.155191       1800       66.1857
0.163813       1900       64.5963
0.172435       2000       63.1712
0.181056       2100       61.8873
0.189678       2200       60.7253
0.1983       2300       59.6693
0.206922       2400       58.7059
0.215543       2500       57.8237
0.224165       2600       57.0132
0.232787       2700       56.266
0.241409       2800       55.5752
0.25003       2900       54.9346
0.258652       3000       54.339
0.267274       3100       53.7838
0.275896       3200       53.265
0.284517       3300       52.779
0.293139       3400       52.3228
0.301761       3500       51.8935
0.310383       3600       51.4889
0.319004       3700       51.1067
0.327626       3800       50.745
0.336248       3900       50.402
0.34487       4000       50.0764
0.353491       4100       49.7666
0.362113       4200       49.4715
0.370735       4300       49.1899
0.379356       4400       48.9208
0.387978       4500       48.6633
0.3966       4600       48.4165
0.405222       4700       48.1798
0.413843       4800       47.9523
0.422465       4900       47.7336
0.431087       5000       47.5229
0.439709       5100       47.3198
0.44833       5200       47.1239
0.456952       5300       46.9346
0.465574       5400       46.7515
0.474196       5500       46.5743
0.482817       5600       46.4026
0.491439       5700       46.2362
0.500061       5800       46.0746
0.508683       5900       45.9177
0.517304       6000       45.7652
0.525926       6100       45.6168
0.534548       6200       45.4723
0.543169       6300       45.3315
0.551791       6400       45.1943
0.560413       6500       45.0605
0.569035       6600       44.9298
0.577656       6700       44.8022
0.586278       6800       44.6774
0.5949       6900       44.5555
0.603522       7000       44.4361
0.612143       7100       44.3193
0.620765       7200       44.2048
0.629387       7300       44.0927
0.638009       7400       43.9827
0.64663       7500       43.8749
0.655252       7600       43.7691
0.663874       7700       43.6652
0.672496       7800       43.5631
0.681117       7900       43.4629
0.689739       8000       43.3643
0.698361       8100       43.2674
0.706983       8200       43.1721
0.715604       8300       43.0783
0.724226       8400       42.986
0.732848       8500       42.8952
0.741469       8600       42.8056
0.750091       8700       42.7174
0.758713       8800       42.6305
0.767335       8900       42.5449
0.775956       9000       42.4604
0.784578       9100       42.377
0.7932       9200       42.2948
0.801822       9300       42.2137
0.810443       9400       42.1336
0.819065       9500       42.0546
0.827687       9600       41.9765
0.836309       9700       41.8994
0.84493       9800       41.8232
0.853552       9900       41.7479
0.862174       10000       41.6735
0.870796       10100       41.6
0.879417       10200       41.5272
0.888039       10300       41.4553
0.896661       10400       41.3842
0.905282       10500       41.3138
0.913904       10600       41.2442
0.922526       10700       41.1753
0.931148       10800       41.1072
0.939769       10900       41.0397
0.948391       11000       40.9729
0.957013       11100       40.9067
0.965635       11200       40.8412
0.974256       11300       40.7763
0.982878       11400       40.712
0.9915       11500       40.6484
1.00012       11600       40.5853
1.00874       11700       40.5227
1.01737       11800       40.4608
1.02599       11900       40.3994
1.03461       12000       40.3385
1.04323       12100       40.2782
1.05185       12200       40.2183
1.06047       12300       40.159
1.0691       12400       40.1002
1.07772       12500       40.0418
1.08634       12600       39.984
1.09496       12700       39.9266
1.10358       12800       39.8696
1.1122       12900       39.8131
1.12083       13000       39.7571
1.12945       13100       39.7014
1.13807       13200       39.6462
1.14669       13300       39.5914
1.15531       13400       39.5371
1.16393       13500       39.4831
1.17256       13600       39.4295
1.18118       13700       39.3763
1.1898       13800       39.3235
1.19842       13900       39.271
1.20704       14000       39.219
1.21567       14100       39.1673
1.22429       14200       39.1159
1.23291       14300       39.0649
1.24153       14400       39.0143
1.25015       14500       38.964
1.25877       14600       38.914
1.2674       14700       38.8643
1.27602       14800       38.815
1.28464       14900       38.766
1.29326       15000       38.7173
1.30188       15100       38.6689
1.3105       15200       38.6209
1.31913       15300       38.5731
1.32775       15400       38.5256
1.33637       15500       38.4785
1.34499       15600       38.4316
1.35361       15700       38.385
1.36223       15800       38.3387
1.37086       15900       38.2926
1.37948       16000       38.2469
1.3881       16100       38.2014
1.39672       16200       38.1561
1.40534       16300       38.1112
1.41397       16400       38.0665
1.42259       16500       38.022
1.43121       16600       37.9778
1.43983       16700       37.9339
1.44845       16800       37.8902
1.45707       16900       37.8468
1.4657       17000       37.8035
1.47432       17100       37.7606
1.48294       17200       37.7178
1.49156       17300       37.6753
1.50018       17400       37.6331
1.5088       17500       37.591
1.51743       17600       37.5492
1.52605       17700       37.5076
1.53467       17800       37.4662
1.54329       17900       37.4251
1.55191       18000       37.3841
1.56053       18100       37.3434
1.56916       18200       37.3029
1.57778       18300       37.2626
1.5864       18400       37.2225
1.59502       18500       37.1825
1.60364       18600       37.1428
1.61227       18700       37.1033
1.62089       18800       37.064
1.62951       18900       37.0249
1.63813       19000       36.986
1.64675       19100       36.9473
1.65537       19200       36.9087
1.664       19300       36.8704
1.67262       19400       36.8322
1.68124       19500       36.7942
1.68986       19600       36.7564
1.69848       19700       36.7188
1.7071       19800       36.6814
1.71573       19900       36.6441
1.72435       20000       36.607
1.73297       20100       36.5701
1.74159       20200       36.5333
1.75021       20300       36.4968
1.75883       20400       36.4603
1.76746       20500       36.4241
1.77608       20600       36.388
1.7847       20700       36.3521
1.79332       20800       36.3164
1.80194       20900       36.2808
1.81056       21000       36.2453
1.81919       21100       36.21
1.82781       21200       36.1749
1.83643       21300       36.14
1.84505       21400       36.1052
1.85367       21500       36.0705
1.8623       21600       36.036
1.87092       21700       36.0016
1.87954       21800       35.9674
1.88816       21900       35.9334
1.89678       22000       35.8994
1.9054       22100       35.8657
1.91403       22200       35.832
1.92265       22300       35.7985
1.93127       22400       35.7652
1.93989       22500       35.732
1.94851       22600       35.6989
1.95713       22700       35.666
1.96576       22800       35.6332
1.97438       22900       35.6005
1.983       23000       35.568
1.99162       23100       35.5356
2.00024       23200       35.5034
2.00886       23300       35.4712
2.01749       23400       35.4392
2.02611       23500       35.4074
2.03473       23600       35.3756
2.04335       23700       35.344
2.05197       23800       35.3125
2.0606       23900       35.2812
2.06922       24000       35.2499
2.07784       24100       35.2188
2.08646       24200       35.1878
2.09508       24300       35.1569
2.1037       24400       35.1262
2.11233       24500       35.0955
2.12095       24600       35.065
2.12957       24700       35.0346
2.13819       24800       35.0044
2.14681       24900       34.9742
2.15543       25000       34.9441
2.16406       25100       34.9142
2.17268       25200       34.8844
2.1813       25300       34.8547
2.18992       25400       34.8251
2.19854       25500       34.7956
2.20716       25600       34.7662
2.21579       25700       34.737
2.22441       25800       34.7078
2.23303       25900       34.6787
2.24165       26000       34.6498
2.25027       26100       34.621
2.2589       26200       34.5922
2.26752       26300       34.5636
2.27614       26400       34.5351
2.28476       26500       34.5067
2.29338       26600       34.4784
2.302       26700       34.4501
2.31063       26800       34.422
2.31925       26900       34.394
2.32787       27000       34.3661
2.33649       27100       34.3383
2.34511       27200       34.3106
2.35373       27300       34.283
2.36236       27400       34.2555
2.37098       27500       34.228
2.3796       27600       34.2007
2.38822       27700       34.1735
2.39684       27800       34.1464
2.40546       27900       34.1193
2.41409       28000       34.0924
2.42271       28100       34.0655
2.43133       28200       34.0388
2.43995       28300       34.0121
2.44857       28400       33.9855
2.4572       28500       33.959
2.46582       28600       33.9326
2.47444       28700       33.9063
2.48306       28800       33.8801
2.49168       28900       33.854
2.5003       29000       33.828
2.50893       29100       33.802
2.51755       29200       33.7761
2.52617       29300       33.7504
2.53479       29400       33.7247
2.54341       29500       33.6991
2.55203       29600       33.6735
2.56066       29700       33.6481
2.56928       29800       33.6227
2.5779       29900       33.5975
2.58652       30000       33.5723
2.59514       30100       33.5472
2.60376       30200       33.5222
2.61239       30300       33.4972
2.62101       30400       33.4723
2.62963       30500       33.4476
2.63825       30600       33.4229
2.64687       30700       33.3982
2.6555       30800       33.3737
2.66412       30900       33.3492
2.67274       31000       33.3248
2.68136       31100       33.3005
2.68998       31200       33.2763
2.6986       31300       33.2521
2.70723       31400       33.2281
2.71585       31500       33.2041
2.72447       31600       33.1801
2.73309       31700       33.1563
2.74171       31800       33.1325
2.75033       31900       33.1088
2.75896       32000       33.0852
2.76758       32100       33.0616
2.7762       32200       33.0381
2.78482       32300       33.0147
2.79344       32400       32.9914
2.80206       32500       32.9681
2.81069       32600       32.9449
2.81931       32700       32.9218
2.82793       32800       32.8987
2.83655       32900       32.8757
2.84517       33000       32.8528
2.8538       33100       32.83
2.86242       33200       32.8072
2.87104       33300       32.7845
2.87966       33400       32.7618
2.88828       33500       32.7393
2.8969       33600       32.7167
2.90553       33700       32.6943
2.91415       33800       32.6719
2.92277       33900       32.6496
2.93139       34000       32.6274
2.94001       34100       32.6052
2.94863       34200       32.5831
2.95726       34300       32.5611
2.96588       34400       32.5391
2.9745       34500       32.5172
2.98312       34600       32.4953
2.99174       34700       32.4735
3.00036       34800       32.4518
3.00899       34900       32.4301
3.01761       35000       32.4085
3.02623       35100       32.387
3.03485       35200       32.3655
3.04347       35300       32.3441
3.0521       35400       32.3228
3.06072       35500       32.3015
3.06934       35600       32.2802
3.07796       35700       32.2591
3.08658       35800       32.238
3.0952       35900       32.2169
3.10383       36000       32.1959
3.11245       36100       32.175
3.12107       36200       32.1541
3.12969       36300       32.1333
3.13831       36400       32.1126
3.14693       36500       32.0919
3.15556       36600       32.0712
3.16418       36700       32.0506
3.1728       36800       32.0301
3.18142       36900       32.0097
3.19004       37000       31.9892
3.19866       37100       31.9689
3.20729       37200       31.9486
3.21591       37300       31.9283
3.22453       37400       31.9082
3.23315       37500       31.888
3.24177       37600       31.868
3.2504       37700       31.8479
3.25902       37800       31.828
3.26764       37900       31.808
3.27626       38000       31.7882
3.28488       38100       31.7684
3.2935       38200       31.7486
3.30213       38300       31.7289
3.31075       38400       31.7093
3.31937       38500       31.6897
3.32799       38600       31.6702
3.33661       38700       31.6507
3.34523       38800       31.6312
3.35386       38900       31.6118
3.36248       39000       31.5925
3.3711       39100       31.5732
3.37972       39200       31.554
3.38834       39300       31.5348
3.39696       39400       31.5157
3.40559       39500       31.4966
3.41421       39600       31.4776
3.42283       39700       31.4586
3.43145       39800       31.4397
3.44007       39900       31.4208
3.4487       40000       31.402
3.45732       40100       31.3832
3.46594       40200       31.3644
3.47456       40300       31.3458
3.48318       40400       31.3271
3.4918       40500       31.3085
3.50043       40600       31.29
3.50905       40700       31.2715
3.51767       40800       31.253
3.52629       40900       31.2346
3.53491       41000       31.2163
3.54353       41100       31.198
3.55216       41200       31.1797
3.56078       41300       31.1615
3.5694       41400       31.1434
3.57802       41500       31.1252
3.58664       41600       31.1072
3.59526       41700       31.0891
3.60389       41800       31.0711
3.61251       41900       31.0532
3.62113       42000       31.0353
3.62975       42100       31.0175
3.63837       42200       30.9997
3.647       42300       30.9819
3.65562       42400       30.9642
3.66424       42500       30.9465
3.67286       42600       30.9289
3.68148       42700       30.9113
3.6901       42800       30.8938
3.69873       42900       30.8763
3.70735       43000       30.8588
3.71597       43100       30.8414
3.72459       43200       30.824
3.73321       43300       30.8067
3.74183       43400       30.7894
3.75046       43500       30.7722
3.75908       43600       30.755
3.7677       43700       30.7378
3.77632       43800       30.7207
3.78494       43900       30.7036
3.79356       44000       30.6866
3.80219       44100       30.6696
3.81081       44200       30.6526
3.81943       44300       30.6357
3.82805       44400       30.6188
3.83667       44500       30.602
3.8453       44600       30.5852
3.85392       44700       30.5685
3.86254       44800       30.5517
3.87116       44900       30.5351
3.87978       45000       30.5184
3.8884       45100       30.5018
3.89703       45200       30.4853
3.90565       45300       30.4688
3.91427       45400       30.4523
3.92289       45500       30.4359
3.93151       45600       30.4195
3.94013       45700       30.4031
3.94876       45800       30.3868
3.95738       45900       30.3705
3.966       46000       30.3543
3.97462       46100       30.338
3.98324       46200       30.3219
3.99186       46300       30.3057
4.00049       46400       30.2896
4.00911       46500       30.2736
4.01773       46600       30.2576
4.02635       46700       30.2416
4.03497       46800       30.2256
4.0436       46900       30.2097
4.05222       47000       30.1938
4.06084       47100       30.178
4.06946       47200       30.1622
4.07808       47300       30.1464
4.0867       47400       30.1307
4.09533       47500       30.115
4.10395       47600       30.0994
4.11257       47700       30.0837
4.12119       47800       30.0681
4.12981       47900       30.0526
4.13843       48000       30.0371
4.14706       48100       30.0216
4.15568       48200       30.0061
4.1643       48300       29.9907
4.17292       48400       29.9753
4.18154       48500       29.96
4.19016       48600       29.9447
4.19879       48700       29.9294
4.20741       48800       29.9142
4.21603       48900       29.899
4.22465       49000       29.8838
4.23327       49100       29.8686
4.2419       49200       29.8535
4.25052       49300       29.8385
4.25914       49400       29.8234
4.26776       49500       29.8084
4.27638       49600       29.7934
4.285       49700       29.7785
4.29363       49800       29.7636
4.30225       49900       29.7487
4.31087       50000       29.7339
4.31949       50100       29.7191
4.32811       50200       29.7043
4.33673       50300       29.6895
4.34536       50400       29.6748
4.35398       50500       29.6601
4.3626       50600       29.6455
4.37122       50700       29.6308
4.37984       50800       29.6163
4.38846       50900       29.6017
4.39709       51000       29.5872
4.40571       51100       29.5727
4.41433       51200       29.5582
4.42295       51300       29.5438
4.43157       51400       29.5294
4.4402       51500       29.515
4.44882       51600       29.5007
4.45744       51700       29.4864
4.46606       51800       29.4721
4.47468       51900       29.4578
4.4833       52000       29.4436
4.49193       52100       29.4294
4.50055       52200       29.4152
4.50917       52300       29.4011
4.51779       52400       29.387
4.52641       52500       29.3729
4.53503       52600       29.3589
4.54366       52700       29.3449
4.55228       52800       29.3309
4.5609       52900       29.317
4.56952       53000       29.303
4.57814       53100       29.2891
4.58676       53200       29.2753
4.59539       53300       29.2614
4.60401       53400       29.2476
4.61263       53500       29.2338
4.62125       53600       29.2201
4.62987       53700       29.2064
4.6385       53800       29.1927
4.64712       53900       29.179
4.65574       54000       29.1654
4.66436       54100       29.1517
4.67298       54200       29.1382
4.6816       54300       29.1246
4.69023       54400       29.1111
4.69885       54500       29.0976
4.70747       54600       29.0841
4.71609       54700       29.0707
4.72471       54800       29.0572
4.73333       54900       29.0438
4.74196       55000       29.0305
4.75058       55100       29.0171
4.7592       55200       29.0038
4.76782       55300       28.9905
4.77644       55400       28.9773
4.78506       55500       28.9641
4.79369       55600       28.9509
4.80231       55700       28.9377
4.81093       55800       28.9245
4.81955       55900       28.9114
4.82817       56000       28.8983
4.8368       56100       28.8852
4.84542       56200       28.8722
4.85404       56300       28.8592
4.86266       56400       28.8462
4.87128       56500       28.8332
4.8799       56600       28.8202
4.88853       56700       28.8073
4.89715       56800       28.7944
4.90577       56900       28.7816
4.91439       57000       28.7687
4.92301       57100       28.7559
4.93163       57200       28.7431
4.94026       57300       28.7304
4.94888       57400       28.7176
4.9575       57500       28.7049
4.96612       57600       28.6922
4.97474       57700       28.6795
4.98336       57800       28.6669
4.99199       57900       28.6543
5.00061       58000       28.6417
5.00923       58100       28.6291
5.01785       58200       28.6166
5.02647       58300       28.604
5.03509       58400       28.5915
5.04372       58500       28.5791
5.05234       58600       28.5666
5.06096       58700       28.5542
5.06958       58800       28.5418
5.0782       58900       28.5294
5.08683       59000       28.5171
5.09545       59100       28.5047
5.10407       59200       28.4924
5.11269       59300       28.4801
5.12131       59400       28.4679
5.12993       59500       28.4557
5.13856       59600       28.4434
5.14718       59700       28.4313
5.1558       59800       28.4191
5.16442       59900       28.4069
5.17304       60000       28.3948
5.18166       60100       28.3827
5.19029       60200       28.3706
5.19891       60300       28.3586
5.20753       60400       28.3466
5.21615       60500       28.3346
5.22477       60600       28.3226
5.23339       60700       28.3106
5.24202       60800       28.2987
5.25064       60900       28.2867
5.25926       61000       28.2749
5.26788       61100       28.263
5.2765       61200       28.2511
5.28513       61300       28.2393
5.29375       61400       28.2275
5.30237       61500       28.2157
5.31099       61600       28.2039
5.31961       61700       28.1922
5.32823       61800       28.1805
5.33686       61900       28.1688
5.34548       62000       28.1571
5.3541       62100       28.1454
5.36272       62200       28.1338
5.37134       62300       28.1222
5.37996       62400       28.1106
5.38859       62500       28.099
5.39721       62600       28.0875
5.40583       62700       28.0759
5.41445       62800       28.0644
5.42307       62900       28.053
5.43169       63000       28.0415
5.44032       63100       28.03
5.44894       63200       28.0186
5.45756       63300       28.0072
5.46618       63400       27.9958
5.4748       63500       27.9845
5.48343       63600       27.9731
5.49205       63700       27.9618
5.50067       63800       27.9505
5.50929       63900       27.9392
5.51791       64000       27.928
5.52653       64100       27.9167
5.53516       64200       27.9055
5.54378       64300       27.8943
5.5524       64400       27.8831
5.56102       64500       27.8719
5.56964       64600       27.8608
5.57826       64700       27.8497
5.58689       64800       27.8386
5.59551       64900       27.8275
5.60413       65000       27.8164
5.61275       65100       27.8054
5.62137       65200       27.7944
5.62999       65300       27.7834
5.63862       65400       27.7724
5.64724       65500       27.7614
5.65586       65600       27.7505
5.66448       65700       27.7395
5.6731       65800       27.7286
5.68173       65900       27.7177
5.69035       66000       27.7069
5.69897       66100       27.696
5.70759       66200       27.6852
5.71621       66300       27.6744
5.72483       66400       27.6636
5.73346       66500       27.6528
5.74208       66600       27.642
5.7507       66700       27.6313
5.75932       66800       27.6206
5.76794       66900       27.6099
5.77656       67000       27.5992
5.78519       67100       27.5885
5.79381       67200       27.5779
5.80243       67300       27.5673
5.81105       67400       27.5567
5.81967       67500       27.5461
5.82829       67600       27.5355
5.83692       67700       27.5249
5.84554       67800       27.5144
5.85416       67900       27.5039
5.86278       68000       27.4934
5.8714       68100       27.4829
5.88003       68200       27.4724
5.88865       68300       27.462
5.89727       68400       27.4516
5.90589       68500       27.4411
5.91451       68600       27.4308
5.92313       68700       27.4204
5.93176       68800       27.41
5.94038       68900       27.3997
5.949       69000       27.3894
5.95762       69100       27.379
5.96624       69200       27.3688
5.97486       69300       27.3585
5.98349       69400       27.3482
5.99211       69500       27.338
6.00073       69600       27.3278
6.00935       69700       27.3176
6.01797       69800       27.3074
6.02659       69900       27.2972
6.03522       70000       27.2871
6.04384       70100       27.2769
6.05246       70200       27.2668
6.06108       70300       27.2567
6.0697       70400       27.2466
6.07833       70500       27.2365
6.08695       70600       27.2265
6.09557       70700       27.2165
6.10419       70800       27.2064
6.11281       70900       27.1964
6.12143       71000       27.1865
6.13006       71100       27.1765
6.13868       71200       27.1665
6.1473       71300       27.1566
6.15592       71400       27.1467
6.16454       71500       27.1368
6.17316       71600       27.1269
6.18179       71700       27.117
6.19041       71800       27.1072
6.19903       71900       27.0973
6.20765       72000       27.0875
6.21627       72100       27.0777
6.22489       72200       27.0679
6.23352       72300       27.0581
6.24214       72400       27.0484
6.25076       72500       27.0386
6.25938       72600       27.0289
6.268       72700       27.0192
6.27663       72800       27.0095
6.28525       72900       26.9998
6.29387       73000       26.9901
6.30249       73100       26.9805
6.31111       73200       26.9708
6.31973       73300       26.9612
6.32836       73400       26.9516
6.33698       73500       26.942
6.3456       73600       26.9325
6.35422       73700       26.9229
6.36284       73800       26.9134
6.37146       73900       26.9038
6.38009       74000       26.8943
6.38871       74100       26.8848
6.39733       74200       26.8753
6.40595       74300       26.8659
6.41457       74400       26.8564
6.42319       74500       26.847
6.43182       74600       26.8376
6.44044       74700       26.8281
6.44906       74800       26.8188
6.45768       74900       26.8094
6.4663       75000       26.8
6.47493       75100       26.7907
6.48355       75200       26.7813
6.49217       75300       26.772
6.50079       75400       26.7627
6.50941       75500       26.7534
6.51803       75600       26.7441
6.52666       75700       26.7349
6.53528       75800       26.7256
6.5439       75900       26.7164
6.55252       76000       26.7072
6.56114       76100       26.698
6.56976       76200       26.6888
6.57839       76300       26.6796
6.58701       76400       26.6705
6.59563       76500       26.6613
6.60425       76600       26.6522
6.61287       76700       26.6431
6.62149       76800       26.634
6.63012       76900       26.6249
6.63874       77000       26.6158
6.64736       77100       26.6067
6.65598       77200       26.5977
6.6646       77300       26.5887
6.67323       77400       26.5796
6.68185       77500       26.5706
6.69047       77600       26.5616
6.69909       77700       26.5527
6.70771       77800       26.5437
6.71633       77900       26.5348
6.72496       78000       26.5258
6.73358       78100       26.5169
6.7422       78200       26.508
6.75082       78300       26.4991
6.75944       78400       26.4902
6.76806       78500       26.4813
6.77669       78600       26.4725
6.78531       78700       26.4636
6.79393       78800       26.4548
6.80255       78900       26.446
6.81117       79000       26.4372
6.81979       79100       26.4284
6.82842       79200       26.4196
6.83704       79300       26.4109
6.84566       79400       26.4021
6.85428       79500       26.3934
6.8629       79600       26.3846
6.87153       79700       26.3759
6.88015       79800       26.3672
6.88877       79900       26.3586
6.89739       80000       26.3499
6.90601       80100       26.3412
6.91463       80200       26.3326
6.92326       80300       26.3239
6.93188       80400       26.3153
6.9405       80500       26.3067
6.94912       80600       26.2981
6.95774       80700       26.2895
6.96636       80800       26.281
6.97499       80900       26.2724
6.98361       81000       26.2639
6.99223       81100       26.2553
7.00085       81200       26.2468
7.00947       81300       26.2383
7.01809       81400       26.2298
7.02672       81500       26.2213
7.03534       81600       26.2129
7.04396       81700       26.2044
7.05258       81800       26.196
7.0612       81900       26.1875
7.06983       82000       26.1791
7.07845       82100       26.1707
7.08707       82200       26.1623
7.09569       82300       26.1539
7.10431       82400       26.1456
7.11293       82500       26.1372
7.12156       82600       26.1289
7.13018       82700       26.1205
7.1388       82800       26.1122
7.14742       82900       26.1039
7.15604       83000       26.0956
7.16466       83100       26.0873
7.17329       83200       26.0791
7.18191       83300       26.0708
7.19053       83400       26.0625
7.19915       83500       26.0543
7.20777       83600       26.0461
7.21639       83700       26.0379
7.22502       83800       26.0297
7.23364       83900       26.0215
7.24226       84000       26.0133
7.25088       84100       26.0051
7.2595       84200       25.997
7.26813       84300       25.9888
7.27675       84400       25.9807
7.28537       84500       25.9726
7.29399       84600       25.9645
7.30261       84700       25.9564
7.31123       84800       25.9483
7.31986       84900       25.9402
7.32848       85000       25.9322
7.3371       85100       25.9241
7.34572       85200       25.9161
7.35434       85300       25.908
7.36296       85400       25.9
7.37159       85500       25.892
7.38021       85600       25.884
7.38883       85700       25.876
7.39745       85800       25.8681
7.40607       85900       25.8601
7.41469       86000       25.8522
7.42332       86100       25.8442
7.43194       86200       25.8363
7.44056       86300       25.8284
7.44918       86400       25.8205
7.4578       86500       25.8126
7.46643       86600       25.8047
7.47505       86700       25.7968
7.48367       86800       25.789
7.49229       86900       25.7811
7.50091       87000       25.7733
7.50953       87100       25.7655
7.51816       87200       25.7576
7.52678       87300       25.7498
7.5354       87400       25.742
7.54402       87500       25.7343
7.55264       87600       25.7265
7.56126       87700       25.7187
7.56989       87800       25.711
7.57851       87900       25.7032
7.58713       88000       25.6955
7.59575       88100       25.6878
7.60437       88200       25.6801
7.61299       88300       25.6724
7.62162       88400       25.6647
7.63024       88500       25.657
7.63886       88600       25.6493
7.64748       88700       25.6417
7.6561       88800       25.634
7.66473       88900       25.6264
7.67335       89000       25.6188
7.68197       89100       25.6112
7.69059       89200       25.6036
7.69921       89300       25.596
7.70783       89400       25.5884
7.71646       89500       25.5808
7.72508       89600       25.5733
7.7337       89700       25.5657
7.74232       89800       25.5582
7.75094       89900       25.5506
7.75956       90000       25.5431
7.76819       90100       25.5356
7.77681       90200       25.5281
7.78543       90300       25.5206
7.79405       90400       25.5131
7.80267       90500       25.5056
7.81129       90600       25.4982
7.81992       90700       25.4907
7.82854       90800       25.4833
7.83716       90900       25.4759
7.84578       91000       25.4684
7.8544       91100       25.461
7.86303       91200       25.4536
7.87165       91300       25.4462
7.88027       91400       25.4389
7.88889       91500       25.4315
7.89751       91600       25.4241
7.90613       91700       25.4168
7.91476       91800       25.4094
7.92338       91900       25.4021
7.932       92000       25.3948
7.94062       92100       25.3875
7.94924       92200       25.3802
7.95786       92300       25.3729
7.96649       92400       25.3656
7.97511       92500       25.3583
7.98373       92600       25.3511
7.99235       92700       25.3438
8.00097       92800       25.3366
8.00959       92900       25.3293
8.01822       93000       25.3221
8.02684       93100       25.3149
8.03546       93200       25.3077
8.04408       93300       25.3005
8.0527       93400       25.2933
8.06133       93500       25.2861
8.06995       93600       25.2789
8.07857       93700       25.2718
8.08719       93800       25.2646
8.09581       93900       25.2575
8.10443       94000       25.2504
8.11306       94100       25.2432
8.12168       94200       25.2361
8.1303       94300       25.229
8.13892       94400       25.2219
8.14754       94500       25.2148
8.15616       94600       25.2078
8.16479       94700       25.2007
8.17341       94800       25.1936
8.18203       94900       25.1866
8.19065       95000       25.1795
8.19927       95100       25.1725
8.20789       95200       25.1655
8.21652       95300       25.1585
8.22514       95400       25.1515
8.23376       95500       25.1445
8.24238       95600       25.1375
8.251       95700       25.1305
8.25963       95800       25.1236
8.26825       95900       25.1166
8.27687       96000       25.1096
8.28549       96100       25.1027
8.29411       96200       25.0958
8.30273       96300       25.0889
8.31136       96400       25.0819
8.31998       96500       25.075
8.3286       96600       25.0681
8.33722       96700       25.0613
8.34584       96800       25.0544
8.35446       96900       25.0475
8.36309       97000       25.0406
8.37171       97100       25.0338
8.38033       97200       25.027
8.38895       97300       25.0201
8.39757       97400       25.0133
8.40619       97500       25.0065
8.41482       97600       24.9997
8.42344       97700       24.9929
8.43206       97800       24.9861
8.44068       97900       24.9793
8.4493       98000       24.9725
8.45792       98100       24.9657
8.46655       98200       24.959
8.47517       98300       24.9522
8.48379       98400       24.9455
8.49241       98500       24.9388
8.50103       98600       24.932
8.50966       98700       24.9253
8.51828       98800       24.9186
8.5269       98900       24.9119
8.53552       99000       24.9052
8.54414       99100       24.8986
8.55276       99200       24.8919
8.56139       99300       24.8852
8.57001       99400       24.8786
8.57863       99500       24.8719
8.58725       99600       24.8653
8.59587       99700       24.8586
8.60449       99800       24.852
8.61312       99900       24.8454
8.62174       100000       24.8388
8.63036       100100       24.8322
8.63898       100200       24.8256
8.6476       100300       24.819
8.65622       100400       24.8125
8.66485       100500       24.8059
8.67347       100600       24.7993
8.68209       100700       24.7928
8.69071       100800       24.7862
8.69933       100900       24.7797
8.70796       101000       24.7732
8.71658       101100       24.7667
8.7252       101200       24.7601
8.73382       101300       24.7536
8.74244       101400       24.7472
8.75106       101500       24.7407
8.75969       101600       24.7342
8.76831       101700       24.7277
8.77693       101800       24.7213
8.78555       101900       24.7148
8.79417       102000       24.7084
8.80279       102100       24.7019
8.81142       102200       24.6955
8.82004       102300       24.6891
8.82866       102400       24.6827
8.83728       102500       24.6762
8.8459       102600       24.6698
8.85452       102700       24.6635
8.86315       102800       24.6571
8.87177       102900       24.6507
8.88039       103000       24.6443
8.88901       103100       24.638
8.89763       103200       24.6316
8.90626       103300       24.6253
8.91488       103400       24.6189
8.9235       103500       24.6126
8.93212       103600       24.6063
8.94074       103700       24.6
8.94936       103800       24.5937
8.95799       103900       24.5874
8.96661       104000       24.5811
8.97523       104100       24.5748
8.98385       104200       24.5685
8.99247       104300       24.5622
9.00109       104400       24.556
9.00972       104500       24.5497
9.01834       104600       24.5435
9.02696       104700       24.5372
9.03558       104800       24.531
9.0442       104900       24.5248
9.05282       105000       24.5186
9.06145       105100       24.5123
9.07007       105200       24.5061
9.07869       105300       24.4999
9.08731       105400       24.4938
9.09593       105500       24.4876
9.10456       105600       24.4814
9.11318       105700       24.4752
9.1218       105800       24.4691
9.13042       105900       24.4629
9.13904       106000       24.4568
9.14766       106100       24.4507
9.15629       106200       24.4445
9.16491       106300       24.4384
9.17353       106400       24.4323
9.18215       106500       24.4262
9.19077       106600       24.4201
9.19939       106700       24.414
9.20802       106800       24.4079
9.21664       106900       24.4018
9.22526       107000       24.3957
9.23388       107100       24.3897
9.2425       107200       24.3836
9.25112       107300       24.3776
9.25975       107400       24.3715
9.26837       107500       24.3655
9.27699       107600       24.3595
9.28561       107700       24.3534
9.29423       107800       24.3474
9.30286       107900       24.3414
9.31148       108000       24.3354
9.3201       108100       24.3294
9.32872       108200       24.3234
9.33734       108300       24.3175
9.34596       108400       24.3115
9.35459       108500       24.3055
9.36321       108600       24.2996
9.37183       108700       24.2936
9.38045       108800       24.2877
9.38907       108900       24.2817
9.39769       109000       24.2758
9.40632       109100       24.2699
9.41494       109200       24.2639
9.42356       109300       24.258
9.43218       109400       24.2521
9.4408       109500       24.2462
9.44942       109600       24.2403
9.45805       109700       24.2344
9.46667       109800       24.2286
9.47529       109900       24.2227
9.48391       110000       24.2168
9.49253       110100       24.211
9.50116       110200       24.2051
9.50978       110300       24.1993
9.5184       110400       24.1934
9.52702       110500       24.1876
9.53564       110600       24.1818
9.54426       110700       24.176
9.55289       110800       24.1702
9.56151       110900       24.1644
9.57013       111000       24.1586
9.57875       111100       24.1528
9.58737       111200       24.147
9.59599       111300       24.1412
9.60462       111400       24.1354
9.61324       111500       24.1297
9.62186       111600       24.1239
9.63048       111700       24.1182
9.6391       111800       24.1124
9.64772       111900       24.1067
9.65635       112000       24.1009
9.66497       112100       24.0952
9.67359       112200       24.0895
9.68221       112300       24.0838
9.69083       112400       24.0781
9.69946       112500       24.0724
9.70808       112600       24.0667
9.7167       112700       24.061
9.72532       112800       24.0553
9.73394       112900       24.0496
9.74256       113000       24.044
9.75119       113100       24.0383
9.75981       113200       24.0326
9.76843       113300       24.027
9.77705       113400       24.0214
9.78567       113500       24.0157
9.79429       113600       24.0101
9.80292       113700       24.0045
9.81154       113800       23.9988
9.82016       113900       23.9932
9.82878       114000       23.9876
9.8374       114100       23.982
9.84602       114200       23.9764
9.85465       114300       23.9708
9.86327       114400       23.9653
9.87189       114500       23.9597
9.88051       114600       23.9541
9.88913       114700       23.9486
9.89776       114800       23.943
9.90638       114900       23.9375
9.915       115000       23.9319
9.92362       115100       23.9264
9.93224       115200       23.9208
9.94086       115300       23.9153
9.94949       115400       23.9098
9.95811       115500       23.9043
9.96673       115600       23.8988
9.97535       115700       23.8933
9.98397       115800       23.8878
9.99259       115900       23.8823
10.0012       116000       23.8768
10.0098       116100       23.8713
10.0185       116200       23.8659
10.0271       116300       23.8604
10.0357       116400       23.8549
10.0443       116500       23.8495
10.0529       116600       23.844
10.0616       116700       23.8386
10.0702       116800       23.8332
10.0788       116900       23.8277
10.0874       117000       23.8223
10.0961       117100       23.8169
10.1047       117200       23.8115
10.1133       117300       23.8061
10.1219       117400       23.8007
10.1305       117500       23.7953
10.1392       117600       23.7899
10.1478       117700       23.7845
10.1564       117800       23.7791
10.165       117900       23.7737
10.1737       118000       23.7684
10.1823       118100       23.763
10.1909       118200       23.7577
10.1995       118300       23.7523
10.2081       118400       23.747
10.2168       118500       23.7416
10.2254       118600       23.7363
10.234       118700       23.731
10.2426       118800       23.7257
10.2512       118900       23.7203
10.2599       119000       23.715
10.2685       119100       23.7097
10.2771       119200       23.7044
10.2857       119300       23.6991
10.2944       119400       23.6939
10.303       119500       23.6886
10.3116       119600       23.6833
10.3202       119700       23.678
10.3288       119800       23.6728
10.3375       119900       23.6675
10.3461       120000       23.6623
10.3547       120100       23.657
10.3633       120200       23.6518
10.372       120300       23.6465
10.3806       120400       23.6413
10.3892       120500       23.6361
10.3978       120600       23.6309
10.4064       120700       23.6257
10.4151       120800       23.6205
10.4237       120900       23.6153
10.4323       121000       23.6101
10.4409       121100       23.6049
10.4495       121200       23.5997
10.4582       121300       23.5945
10.4668       121400       23.5893
10.4754       121500       23.5842
10.484       121600       23.579
10.4927       121700       23.5738
10.5013       121800       23.5687
10.5099       121900       23.5635
10.5185       122000       23.5584
10.5271       122100       23.5533
10.5358       122200       23.5481
10.5444       122300       23.543
10.553       122400       23.5379
10.5616       122500       23.5328
10.5703       122600       23.5277
10.5789       122700       23.5225
10.5875       122800       23.5174
10.5961       122900       23.5124
10.6047       123000       23.5073
10.6134       123100       23.5022
10.622       123200       23.4971
10.6306       123300       23.492
10.6392       123400       23.487
10.6478       123500       23.4819
10.6565       123600       23.4768
10.6651       123700       23.4718
10.6737       123800       23.4667
10.6823       123900       23.4617
10.691       124000       23.4567
10.6996       124100       23.4516
10.7082       124200       23.4466
10.7168       124300       23.4416
10.7254       124400       23.4366
10.7341       124500       23.4316
10.7427       124600       23.4266
10.7513       124700       23.4216
10.7599       124800       23.4166
10.7686       124900       23.4116
10.7772       125000       23.4066
10.7858       125100       23.4016
10.7944       125200       23.3966
10.803       125300       23.3917
10.8117       125400       23.3867
10.8203       125500       23.3817
10.8289       125600       23.3768
10.8375       125700       23.3718
10.8461       125800       23.3669
10.8548       125900       23.362
10.8634       126000       23.357
10.872       126100       23.3521
10.8806       126200       23.3472
10.8893       126300       23.3423
10.8979       126400       23.3373
10.9065       126500       23.3324
10.9151       126600       23.3275
10.9237       126700       23.3226
10.9324       126800       23.3177
10.941       126900       23.3129
10.9496       127000       23.308
10.9582       127100       23.3031
10.9669       127200       23.2982
10.9755       127300       23.2933
10.9841       127400       23.2885
10.9927       127500       23.2836
11.0013       127600       23.2788
11.01       127700       23.2739
11.0186       127800       23.2691
11.0272       127900       23.2642
11.0358       128000       23.2594
11.0444       128100       23.2546
11.0531       128200       23.2497
11.0617       128300       23.2449
11.0703       128400       23.2401
11.0789       128500       23.2353
11.0876       128600       23.2305
11.0962       128700       23.2257
11.1048       128800       23.2209
11.1134       128900       23.2161
11.122       129000       23.2113
11.1307       129100       23.2065
11.1393       129200       23.2018
11.1479       129300       23.197
11.1565       129400       23.1922
11.1652       129500       23.1875
11.1738       129600       23.1827
11.1824       129700       23.178
11.191       129800       23.1732
11.1996       129900       23.1685
11.2083       130000       23.1637
11.2169       130100       23.159
11.2255       130200       23.1543
11.2341       130300       23.1495
11.2427       130400       23.1448
11.2514       130500       23.1401
11.26       130600       23.1354
11.2686       130700       23.1307
11.2772       130800       23.126
11.2859       130900       23.1213
11.2945       131000       23.1166
11.3031       131100       23.1119
11.3117       131200       23.1072
11.3203       131300       23.1025
11.329       131400       23.0979
11.3376       131500       23.0932
11.3462       131600       23.0885
11.3548       131700       23.0839
11.3635       131800       23.0792
11.3721       131900       23.0746
11.3807       132000       23.0699
11.3893       132100       23.0653
11.3979       132200       23.0606
11.4066       132300       23.056
11.4152       132400       23.0514
11.4238       132500       23.0468
11.4324       132600       23.0421
11.441       132700       23.0375
11.4497       132800       23.0329
11.4583       132900       23.0283
11.4669       133000       23.0237
11.4755       133100       23.0191
11.4842       133200       23.0145
11.4928       133300       23.0099
11.5014       133400       23.0053
11.51       133500       23.0008
11.5186       133600       22.9962
11.5273       133700       22.9916
11.5359       133800       22.9871
11.5445       133900       22.9825
11.5531       134000       22.9779
11.5618       134100       22.9734
11.5704       134200       22.9688
11.579       134300       22.9643
11.5876       134400       22.9598
11.5962       134500       22.9552
11.6049       134600       22.9507
11.6135       134700       22.9462
11.6221       134800       22.9416
11.6307       134900       22.9371
11.6393       135000       22.9326
11.648       135100       22.9281
11.6566       135200       22.9236
11.6652       135300       22.9191
11.6738       135400       22.9146
11.6825       135500       22.9101
11.6911       135600       22.9056
11.6997       135700       22.9011
11.7083       135800       22.8967
11.7169       135900       22.8922
11.7256       136000       22.8877
11.7342       136100       22.8833
11.7428       136200       22.8788
11.7514       136300       22.8743
11.7601       136400       22.8699
11.7687       136500       22.8654
11.7773       136600       22.861
11.7859       136700       22.8565
11.7945       136800       22.8521
11.8032       136900       22.8477
11.8118       137000       22.8432
11.8204       137100       22.8388
11.829       137200       22.8344
11.8376       137300       22.83
11.8463       137400       22.8256
11.8549       137500       22.8212
11.8635       137600       22.8168
11.8721       137700       22.8124
11.8808       137800       22.808
11.8894       137900       22.8036
11.898       138000       22.7992
11.9066       138100       22.7948
11.9152       138200       22.7904
11.9239       138300       22.7861
11.9325       138400       22.7817
11.9411       138500       22.7773
11.9497       138600       22.773
11.9584       138700       22.7686
11.967       138800       22.7643
11.9756       138900       22.7599
11.9842       139000       22.7556
11.9928       139100       22.7512
12.0015       139200       22.7469
12.0101       139300       22.7426
12.0187       139400       22.7382
12.0273       139500       22.7339
12.0359       139600       22.7296
12.0446       139700       22.7253
12.0532       139800       22.721
12.0618       139900       22.7166
12.0704       140000       22.7123
12.0791       140100       22.708
12.0877       140200       22.7037
12.0963       140300       22.6995
12.1049       140400       22.6952
12.1135       140500       22.6909
12.1222       140600       22.6866
12.1308       140700       22.6823
12.1394       140800       22.6781
12.148       140900       22.6738
12.1567       141000       22.6695
12.1653       141100       22.6653
12.1739       141200       22.661
12.1825       141300       22.6567
12.1911       141400       22.6525
12.1998       141500       22.6483
12.2084       141600       22.644
12.217       141700       22.6398
12.2256       141800       22.6355
12.2342       141900       22.6313
12.2429       142000       22.6271
12.2515       142100       22.6229
12.2601       142200       22.6186
12.2687       142300       22.6144
12.2774       142400       22.6102
12.286       142500       22.606
12.2946       142600       22.6018
12.3032       142700       22.5976
12.3118       142800       22.5934
12.3205       142900       22.5892
12.3291       143000       22.585
12.3377       143100       22.5809
12.3463       143200       22.5767
12.355       143300       22.5725
12.3636       143400       22.5683
12.3722       143500       22.5642
12.3808       143600       22.56
12.3894       143700       22.5558
12.3981       143800       22.5517
12.4067       143900       22.5475
12.4153       144000       22.5434
12.4239       144100       22.5392
12.4325       144200       22.5351
12.4412       144300       22.531
12.4498       144400       22.5268
12.4584       144500       22.5227
12.467       144600       22.5186
12.4757       144700       22.5144
12.4843       144800       22.5103
12.4929       144900       22.5062
12.5015       145000       22.5021
12.5101       145100       22.498
12.5188       145200       22.4939
12.5274       145300       22.4898
12.536       145400       22.4857
12.5446       145500       22.4816
12.5533       145600       22.4775
12.5619       145700       22.4734
12.5705       145800       22.4693
12.5791       145900       22.4653
12.5877       146000       22.4612
12.5964       146100       22.4571
12.605       146200       22.4531
12.6136       146300       22.449
12.6222       146400       22.4449
12.6308       146500       22.4409
12.6395       146600       22.4368
12.6481       146700       22.4328
12.6567       146800       22.4287
12.6653       146900       22.4247
12.674       147000       22.4206
12.6826       147100       22.4166
12.6912       147200       22.4126
12.6998       147300       22.4086
12.7084       147400       22.4045
12.7171       147500       22.4005
12.7257       147600       22.3965
12.7343       147700       22.3925
12.7429       147800       22.3885
12.7516       147900       22.3845
12.7602       148000       22.3805
12.7688       148100       22.3765
12.7774       148200       22.3725
12.786       148300       22.3685
12.7947       148400       22.3645
12.8033       148500       22.3605
12.8119       148600       22.3565
12.8205       148700       22.3525
12.8291       148800       22.3486
12.8378       148900       22.3446
12.8464       149000       22.3406
12.855       149100       22.3367
12.8636       149200       22.3327
12.8723       149300       22.3287
12.8809       149400       22.3248
12.8895       149500       22.3208
12.8981       149600       22.3169
12.9067       149700       22.313
12.9154       149800       22.309
12.924       149900       22.3051
12.9326       150000       22.3011
12.9412       150100       22.2972
12.9499       150200       22.2933
12.9585       150300       22.2894
12.9671       150400       22.2855
12.9757       150500       22.2815
12.9843       150600       22.2776
12.993       150700       22.2737
13.0016       150800       22.2698
13.0102       150900       22.2659
13.0188       151000       22.262
13.0274       151100       22.2581
13.0361       151200       22.2542
13.0447       151300       22.2503
13.0533       151400       22.2465
13.0619       151500       22.2426
13.0706       151600       22.2387
13.0792       151700       22.2348
13.0878       151800       22.2309
13.0964       151900       22.2271
13.105       152000       22.2232
13.1137       152100       22.2194
13.1223       152200       22.2155
13.1309       152300       22.2116
13.1395       152400       22.2078
13.1482       152500       22.2039
13.1568       152600       22.2001
13.1654       152700       22.1963
13.174       152800       22.1924
13.1826       152900       22.1886
13.1913       153000       22.1848
13.1999       153100       22.1809
13.2085       153200       22.1771
13.2171       153300       22.1733
13.2257       153400       22.1695
13.2344       153500       22.1656
13.243       153600       22.1618
13.2516       153700       22.158
13.2602       153800       22.1542
13.2689       153900       22.1504
13.2775       154000       22.1466
13.2861       154100       22.1428
13.2947       154200       22.139
13.3033       154300       22.1352
13.312       154400       22.1315
13.3206       154500       22.1277
13.3292       154600       22.1239
13.3378       154700       22.1201
13.3465       154800       22.1164
13.3551       154900       22.1126
13.3637       155000       22.1088
13.3723       155100       22.1051
13.3809       155200       22.1013
13.3896       155300       22.0975
13.3982       155400       22.0938
13.4068       155500       22.09
13.4154       155600       22.0863
13.424       155700       22.0825
13.4327       155800       22.0788
13.4413       155900       22.0751
13.4499       156000       22.0713
13.4585       156100       22.0676
13.4672       156200       22.0639
13.4758       156300       22.0601
13.4844       156400       22.0564
13.493       156500       22.0527
13.5016       156600       22.049
13.5103       156700       22.0453
13.5189       156800       22.0416
13.5275       156900       22.0379
13.5361       157000       22.0342
13.5448       157100       22.0305
13.5534       157200       22.0268
13.562       157300       22.0231
13.5706       157400       22.0194
13.5792       157500       22.0157
13.5879       157600       22.012
13.5965       157700       22.0083
13.6051       157800       22.0047
13.6137       157900       22.001
13.6223       158000       21.9973
13.631       158100       21.9936
13.6396       158200       21.99
13.6482       158300       21.9863
13.6568       158400       21.9827
13.6655       158500       21.979
13.6741       158600       21.9753
13.6827       158700       21.9717
13.6913       158800       21.968
13.6999       158900       21.9644
13.7086       159000       21.9608
13.7172       159100       21.9571
13.7258       159200       21.9535
13.7344       159300       21.9499
13.7431       159400       21.9462
13.7517       159500       21.9426
13.7603       159600       21.939
13.7689       159700       21.9354
13.7775       159800       21.9317
13.7862       159900       21.9281
13.7948       160000       21.9245
13.8034       160100       21.9209
13.812       160200       21.9173
13.8206       160300       21.9137
13.8293       160400       21.9101
13.8379       160500       21.9065
13.8465       160600       21.9029
13.8551       160700       21.8993
13.8638       160800       21.8957
13.8724       160900       21.8921
13.881       161000       21.8886
13.8896       161100       21.885
13.8982       161200       21.8814
13.9069       161300       21.8778
13.9155       161400       21.8743
13.9241       161500       21.8707
13.9327       161600       21.8671
13.9414       161700       21.8636
13.95       161800       21.86
13.9586       161900       21.8565
13.9672       162000       21.8529
13.9758       162100       21.8494
13.9845       162200       21.8458
13.9931       162300       21.8423
14.0017       162400       21.8387
14.0103       162500       21.8352
14.0189       162600       21.8317
14.0276       162700       21.8281
14.0362       162800       21.8246
14.0448       162900       21.8211
14.0534       163000       21.8176
14.0621       163100       21.814
14.0707       163200       21.8105
14.0793       163300       21.807
14.0879       163400       21.8035
14.0965       163500       21.8
14.1052       163600       21.7965
14.1138       163700       21.793
14.1224       163800       21.7895
14.131       163900       21.786
14.1397       164000       21.7825
14.1483       164100       21.779
14.1569       164200       21.7755
14.1655       164300       21.772
14.1741       164400       21.7685
14.1828       164500       21.7651
14.1914       164600       21.7616
14.2       164700       21.7581
14.2086       164800       21.7546
14.2172       164900       21.7512
14.2259       165000       21.7477
14.2345       165100       21.7442
14.2431       165200       21.7408
14.2517       165300       21.7373
14.2604       165400       21.7339
14.269       165500       21.7304
14.2776       165600       21.727
14.2862       165700       21.7235
14.2948       165800       21.7201
14.3035       165900       21.7166
14.3121       166000       21.7132
14.3207       166100       21.7097
14.3293       166200       21.7063
14.338       166300       21.7029
14.3466       166400       21.6995
14.3552       166500       21.696
14.3638       166600       21.6926
14.3724       166700       21.6892
14.3811       166800       21.6858
14.3897       166900       21.6824
14.3983       167000       21.679
14.4069       167100       21.6755
14.4155       167200       21.6721
14.4242       167300       21.6687
14.4328       167400       21.6653
14.4414       167500       21.6619
14.45       167600       21.6585
14.4587       167700       21.6551
14.4673       167800       21.6518
14.4759       167900       21.6484
14.4845       168000       21.645
14.4931       168100       21.6416
14.5018       168200       21.6382
14.5104       168300       21.6349
14.519       168400       21.6315
14.5276       168500       21.6281
14.5363       168600       21.6247
14.5449       168700       21.6214
14.5535       168800       21.618
14.5621       168900       21.6147
14.5707       169000       21.6113
14.5794       169100       21.6079
14.588       169200       21.6046
14.5966       169300       21.6012
14.6052       169400       21.5979
14.6138       169500       21.5945
14.6225       169600       21.5912
14.6311       169700       21.5879
14.6397       169800       21.5845
14.6483       169900       21.5812
14.657       170000       21.5779
14.6656       170100       21.5745
14.6742       170200       21.5712
14.6828       170300       21.5679
14.6914       170400       21.5646
14.7001       170500       21.5613
14.7087       170600       21.5579
14.7173       170700       21.5546
14.7259       170800       21.5513
14.7346       170900       21.548
14.7432       171000       21.5447
14.7518       171100       21.5414
14.7604       171200       21.5381
14.769       171300       21.5348
14.7777       171400       21.5315
14.7863       171500       21.5282
14.7949       171600       21.5249
14.8035       171700       21.5216
14.8121       171800       21.5184
14.8208       171900       21.5151
14.8294       172000       21.5118
14.838       172100       21.5085
14.8466       172200       21.5052
14.8553       172300       21.502
14.8639       172400       21.4987
14.8725       172500       21.4954
14.8811       172600       21.4922
14.8897       172700       21.4889
14.8984       172800       21.4857
14.907       172900       21.4824
14.9156       173000       21.4791
14.9242       173100       21.4759
14.9329       173200       21.4726
14.9415       173300       21.4694
14.9501       173400       21.4662
14.9587       173500       21.4629
14.9673       173600       21.4597
14.976       173700       21.4564
14.9846       173800       21.4532
14.9932       173900       21.45
15.0018       174000       21.4467
15.0104       174100       21.4435
15.0191       174200       21.4403
15.0277       174300       21.4371
15.0363       174400       21.4339
15.0449       174500       21.4306
15.0536       174600       21.4274
15.0622       174700       21.4242
15.0708       174800       21.421
15.0794       174900       21.4178
15.088       175000       21.4146
15.0967       175100       21.4114
15.1053       175200       21.4082
15.1139       175300       21.405
15.1225       175400       21.4018
15.1312       175500       21.3986
15.1398       175600       21.3954
15.1484       175700       21.3922
15.157       175800       21.389
15.1656       175900       21.3859
15.1743       176000       21.3827
15.1829       176100       21.3795
15.1915       176200       21.3763
15.2001       176300       21.3732
15.2087       176400       21.37
15.2174       176500       21.3668
15.226       176600       21.3637
15.2346       176700       21.3605
15.2432       176800       21.3573
15.2519       176900       21.3542
15.2605       177000       21.351
15.2691       177100       21.3479
15.2777       177200       21.3447
15.2863       177300       21.3416
15.295       177400       21.3384
15.3036       177500       21.3353
15.3122       177600       21.3321
15.3208       177700       21.329
15.3295       177800       21.3259
15.3381       177900       21.3227
15.3467       178000       21.3196
15.3553       178100       21.3165
15.3639       178200       21.3133
15.3726       178300       21.3102
15.3812       178400       21.3071
15.3898       178500       21.304
15.3984       178600       21.3009
15.407       178700       21.2977
15.4157       178800       21.2946
15.4243       178900       21.2915
15.4329       179000       21.2884
15.4415       179100       21.2853
15.4502       179200       21.2822
15.4588       179300       21.2791
15.4674       179400       21.276
15.476       179500       21.2729
15.4846       179600       21.2698
15.4933       179700       21.2667
15.5019       179800       21.2636
15.5105       179900       21.2605
15.5191       180000       21.2575
15.5278       180100       21.2544
15.5364       180200       21.2513
15.545       180300       21.2482
15.5536       180400       21.2451
15.5622       180500       21.2421
15.5709       180600       21.239
15.5795       180700       21.2359
15.5881       180800       21.2329
15.5967       180900       21.2298
15.6053       181000       21.2267
15.614       181100       21.2237
15.6226       181200       21.2206
15.6312       181300       21.2176
15.6398       181400       21.2145
15.6485       181500       21.2114
15.6571       181600       21.2084
15.6657       181700       21.2054
15.6743       181800       21.2023
15.6829       181900       21.1993
15.6916       182000       21.1962
15.7002       182100       21.1932
15.7088       182200       21.1902
15.7174       182300       21.1871
15.7261       182400       21.1841
15.7347       182500       21.1811
15.7433       182600       21.178
15.7519       182700       21.175
15.7605       182800       21.172
15.7692       182900       21.169
15.7778       183000       21.166
15.7864       183100       21.1629
15.795       183200       21.1599
15.8036       183300       21.1569
15.8123       183400       21.1539
15.8209       183500       21.1509
15.8295       183600       21.1479
15.8381       183700       21.1449
15.8468       183800       21.1419
15.8554       183900       21.1389
15.864       184000       21.1359
15.8726       184100       21.1329
15.8812       184200       21.1299
15.8899       184300       21.1269
15.8985       184400       21.1239
15.9071       184500       21.121
15.9157       184600       21.118
15.9244       184700       21.115
15.933       184800       21.112
15.9416       184900       21.109
15.9502       185000       21.1061
15.9588       185100       21.1031
15.9675       185200       21.1001
15.9761       185300       21.0972
15.9847       185400       21.0942
15.9933       185500       21.0912
16.0019       185600       21.0883
16.0106       185700       21.0853
16.0192       185800       21.0824
16.0278       185900       21.0794
16.0364       186000       21.0765
16.0451       186100       21.0735
16.0537       186200       21.0706
16.0623       186300       21.0676
16.0709       186400       21.0647
16.0795       186500       21.0617
16.0882       186600       21.0588
16.0968       186700       21.0559
16.1054       186800       21.0529
16.114       186900       21.05
16.1227       187000       21.0471
16.1313       187100       21.0441
16.1399       187200       21.0412
16.1485       187300       21.0383
16.1571       187400       21.0354
16.1658       187500       21.0324
16.1744       187600       21.0295
16.183       187700       21.0266
16.1916       187800       21.0237
16.2002       187900       21.0208
16.2089       188000       21.0179
16.2175       188100       21.015
16.2261       188200       21.0121
16.2347       188300       21.0092
16.2434       188400       21.0063
16.252       188500       21.0034
16.2606       188600       21.0005
16.2692       188700       20.9976
16.2778       188800       20.9947
16.2865       188900       20.9918
16.2951       189000       20.9889
16.3037       189100       20.986
16.3123       189200       20.9831
16.321       189300       20.9802
16.3296       189400       20.9774
16.3382       189500       20.9745
16.3468       189600       20.9716
16.3554       189700       20.9687
16.3641       189800       20.9659
16.3727       189900       20.963
16.3813       190000       20.9601
16.3899       190100       20.9573
16.3985       190200       20.9544
16.4072       190300       20.9515
16.4158       190400       20.9487
16.4244       190500       20.9458
16.433       190600       20.943
16.4417       190700       20.9401
16.4503       190800       20.9373
16.4589       190900       20.9344
16.4675       191000       20.9316
16.4761       191100       20.9287
16.4848       191200       20.9259
16.4934       191300       20.923
16.502       191400       20.9202
16.5106       191500       20.9173
16.5193       191600       20.9145
16.5279       191700       20.9117
16.5365       191800       20.9088
16.5451       191900       20.906
16.5537       192000       20.9032
16.5624       192100       20.9004
16.571       192200       20.8975
16.5796       192300       20.8947
16.5882       192400       20.8919
16.5968       192500       20.8891
16.6055       192600       20.8863
16.6141       192700       20.8835
16.6227       192800       20.8806
16.6313       192900       20.8778
16.64       193000       20.875
16.6486       193100       20.8722
16.6572       193200       20.8694
16.6658       193300       20.8666
16.6744       193400       20.8638
16.6831       193500       20.861
16.6917       193600       20.8582
16.7003       193700       20.8554
16.7089       193800       20.8526
16.7175       193900       20.8498
16.7262       194000       20.8471
16.7348       194100       20.8443
16.7434       194200       20.8415
16.752       194300       20.8387
16.7607       194400       20.8359
16.7693       194500       20.8331
16.7779       194600       20.8304
16.7865       194700       20.8276
16.7951       194800       20.8248
16.8038       194900       20.8221
16.8124       195000       20.8193
16.821       195100       20.8165
16.8296       195200       20.8138
16.8383       195300       20.811
16.8469       195400       20.8082
16.8555       195500       20.8055
16.8641       195600       20.8027
16.8727       195700       20.8
16.8814       195800       20.7972
16.89       195900       20.7944
16.8986       196000       20.7917
16.9072       196100       20.789
16.9158       196200       20.7862
16.9245       196300       20.7835
16.9331       196400       20.7807
16.9417       196500       20.778
16.9503       196600       20.7752
16.959       196700       20.7725
16.9676       196800       20.7698
16.9762       196900       20.767
16.9848       197000       20.7643
16.9934       197100       20.7616
17.0021       197200       20.7589
17.0107       197300       20.7561
17.0193       197400       20.7534
17.0279       197500       20.7507
17.0366       197600       20.748
17.0452       197700       20.7452
17.0538       197800       20.7425
17.0624       197900       20.7398
17.071       198000       20.7371
17.0797       198100       20.7344
17.0883       198200       20.7317
17.0969       198300       20.729
17.1055       198400       20.7263
17.1141       198500       20.7236
17.1228       198600       20.7209
17.1314       198700       20.7182
17.14       198800       20.7155
17.1486       198900       20.7128
17.1573       199000       20.7101
17.1659       199100       20.7074
17.1745       199200       20.7047
17.1831       199300       20.702
17.1917       199400       20.6993
17.2004       199500       20.6967
17.209       199600       20.694
17.2176       199700       20.6913
17.2262       199800       20.6886
17.2349       199900       20.6859
17.2435       200000       20.6833
17.2521       200100       20.6806
17.2607       200200       20.6779
17.2693       200300       20.6752
17.278       200400       20.6726
17.2866       200500       20.6699
17.2952       200600       20.6672
17.3038       200700       20.6646
17.3124       200800       20.6619
17.3211       200900       20.6593
17.3297       201000       20.6566
17.3383       201100       20.654
17.3469       201200       20.6513
17.3556       201300       20.6486
17.3642       201400       20.646
17.3728       201500       20.6434
17.3814       201600       20.6407
17.39       201700       20.6381
17.3987       201800       20.6354
17.4073       201900       20.6328
17.4159       202000       20.6301
17.4245       202100       20.6275
17.4332       202200       20.6249
17.4418       202300       20.6222
17.4504       202400       20.6196
17.459       202500       20.617
17.4676       202600       20.6143
17.4763       202700       20.6117
17.4849       202800       20.6091
17.4935       202900       20.6065
17.5021       203000       20.6038
17.5107       203100       20.6012
17.5194       203200       20.5986
17.528       203300       20.596
17.5366       203400       20.5934
17.5452       203500       20.5908
17.5539       203600       20.5882
17.5625       203700       20.5855
17.5711       203800       20.5829
17.5797       203900       20.5803
17.5883       204000       20.5777
17.597       204100       20.5751
17.6056       204200       20.5725
17.6142       204300       20.5699
17.6228       204400       20.5673
17.6315       204500       20.5647
17.6401       204600       20.5621
17.6487       204700       20.5596
17.6573       204800       20.557
17.6659       204900       20.5544
17.6746       205000       20.5518
17.6832       205100       20.5492
17.6918       205200       20.5466
17.7004       205300       20.544
17.709       205400       20.5415
17.7177       205500       20.5389
17.7263       205600       20.5363
17.7349       205700       20.5337
17.7435       205800       20.5312
17.7522       205900       20.5286
17.7608       206000       20.526
17.7694       206100       20.5235
17.778       206200       20.5209
17.7866       206300       20.5183
17.7953       206400       20.5158
17.8039       206500       20.5132
17.8125       206600       20.5106
17.8211       206700       20.5081
17.8298       206800       20.5055
17.8384       206900       20.503
17.847       207000       20.5004
17.8556       207100       20.4979
17.8642       207200       20.4953
17.8729       207300       20.4928
17.8815       207400       20.4902
17.8901       207500       20.4877
17.8987       207600       20.4851
17.9073       207700       20.4826
17.916       207800       20.4801
17.9246       207900       20.4775
17.9332       208000       20.475
17.9418       208100       20.4725
17.9505       208200       20.4699
17.9591       208300       20.4674
17.9677       208400       20.4649
17.9763       208500       20.4623
17.9849       208600       20.4598
17.9936       208700       20.4573
18.0022       208800       20.4548
18.0108       208900       20.4522
18.0194       209000       20.4497
18.0281       209100       20.4472
18.0367       209200       20.4447
18.0453       209300       20.4422
18.0539       209400       20.4397
18.0625       209500       20.4372
18.0712       209600       20.4346
18.0798       209700       20.4321
18.0884       209800       20.4296
18.097       209900       20.4271
18.1056       210000       20.4246
18.1143       210100       20.4221
18.1229       210200       20.4196
18.1315       210300       20.4171
18.1401       210400       20.4146
18.1488       210500       20.4121
18.1574       210600       20.4096
18.166       210700       20.4072
18.1746       210800       20.4047
18.1832       210900       20.4022
18.1919       211000       20.3997
18.2005       211100       20.3972
18.2091       211200       20.3947
18.2177       211300       20.3922
18.2264       211400       20.3898
18.235       211500       20.3873
18.2436       211600       20.3848
18.2522       211700       20.3823
18.2608       211800       20.3799
18.2695       211900       20.3774
18.2781       212000       20.3749
18.2867       212100       20.3724
18.2953       212200       20.37
18.3039       212300       20.3675
18.3126       212400       20.365
18.3212       212500       20.3626
18.3298       212600       20.3601
18.3384       212700       20.3577
18.3471       212800       20.3552
18.3557       212900       20.3527
18.3643       213000       20.3503
18.3729       213100       20.3478
18.3815       213200       20.3454
18.3902       213300       20.3429
18.3988       213400       20.3405
18.4074       213500       20.338
18.416       213600       20.3356
18.4247       213700       20.3332
18.4333       213800       20.3307
18.4419       213900       20.3283
18.4505       214000       20.3258
18.4591       214100       20.3234
18.4678       214200       20.321
18.4764       214300       20.3185
18.485       214400       20.3161
18.4936       214500       20.3137
18.5022       214600       20.3112
18.5109       214700       20.3088
18.5195       214800       20.3064
18.5281       214900       20.304
18.5367       215000       20.3015
18.5454       215100       20.2991
18.554       215200       20.2967
18.5626       215300       20.2943
18.5712       215400       20.2919
18.5798       215500       20.2894
18.5885       215600       20.287
18.5971       215700       20.2846
18.6057       215800       20.2822
18.6143       215900       20.2798
18.623       216000       20.2774
18.6316       216100       20.275
18.6402       216200       20.2726
18.6488       216300       20.2702
18.6574       216400       20.2678
18.6661       216500       20.2654
18.6747       216600       20.263
18.6833       216700       20.2606
18.6919       216800       20.2582
18.7005       216900       20.2558
18.7092       217000       20.2534
18.7178       217100       20.251
18.7264       217200       20.2486
18.735       217300       20.2462
18.7437       217400       20.2438
18.7523       217500       20.2415
18.7609       217600       20.2391
18.7695       217700       20.2367
18.7781       217800       20.2343
18.7868       217900       20.2319
18.7954       218000       20.2296
18.804       218100       20.2272
18.8126       218200       20.2248
18.8213       218300       20.2224
18.8299       218400       20.2201
18.8385       218500       20.2177
18.8471       218600       20.2153
18.8557       218700       20.213
18.8644       218800       20.2106
18.873       218900       20.2082
18.8816       219000       20.2059
18.8902       219100       20.2035
18.8988       219200       20.2011
18.9075       219300       20.1988
18.9161       219400       20.1964
18.9247       219500       20.1941
18.9333       219600       20.1917
18.942       219700       20.1894
18.9506       219800       20.187
18.9592       219900       20.1847
18.9678       220000       20.1823
18.9764       220100       20.18
18.9851       220200       20.1776
18.9937       220300       20.1753
19.0023       220400       20.1729
19.0109       220500       20.1706
19.0196       220600       20.1683
19.0282       220700       20.1659
19.0368       220800       20.1636
19.0454       220900       20.1612
19.054       221000       20.1589
19.0627       221100       20.1566
19.0713       221200       20.1543
19.0799       221300       20.1519
19.0885       221400       20.1496
19.0971       221500       20.1473
19.1058       221600       20.1449
19.1144       221700       20.1426
19.123       221800       20.1403
19.1316       221900       20.138
19.1403       222000       20.1357
19.1489       222100       20.1333
19.1575       222200       20.131
19.1661       222300       20.1287
19.1747       222400       20.1264
19.1834       222500       20.1241
19.192       222600       20.1218
19.2006       222700       20.1195
19.2092       222800       20.1172
19.2179       222900       20.1149
19.2265       223000       20.1126
19.2351       223100       20.1103
19.2437       223200       20.1079
19.2523       223300       20.1056
19.261       223400       20.1034
19.2696       223500       20.1011
19.2782       223600       20.0988
19.2868       223700       20.0965
19.2954       223800       20.0942
19.3041       223900       20.0919
19.3127       224000       20.0896
19.3213       224100       20.0873
19.3299       224200       20.085
19.3386       224300       20.0827
19.3472       224400       20.0804
19.3558       224500       20.0782
19.3644       224600       20.0759
19.373       224700       20.0736
19.3817       224800       20.0713
19.3903       224900       20.069
19.3989       225000       20.0668
19.4075       225100       20.0645
19.4162       225200       20.0622
19.4248       225300       20.0599
19.4334       225400       20.0577
19.442       225500       20.0554
19.4506       225600       20.0531
19.4593       225700       20.0509
19.4679       225800       20.0486
19.4765       225900       20.0463
19.4851       226000       20.0441
19.4937       226100       20.0418
19.5024       226200       20.0396
19.511       226300       20.0373
19.5196       226400       20.035
19.5282       226500       20.0328
19.5369       226600       20.0305
19.5455       226700       20.0283
19.5541       226800       20.026
19.5627       226900       20.0238
19.5713       227000       20.0215
19.58       227100       20.0193
19.5886       227200       20.017
19.5972       227300       20.0148
19.6058       227400       20.0125
19.6145       227500       20.0103
19.6231       227600       20.0081
19.6317       227700       20.0058
19.6403       227800       20.0036
19.6489       227900       20.0014
19.6576       228000       19.9991
19.6662       228100       19.9969
19.6748       228200       19.9946
19.6834       228300       19.9924
19.692       228400       19.9902
19.7007       228500       19.988
19.7093       228600       19.9857
19.7179       228700       19.9835
19.7265       228800       19.9813
19.7352       228900       19.9791
19.7438       229000       19.9768
19.7524       229100       19.9746
19.761       229200       19.9724
19.7696       229300       19.9702
19.7783       229400       19.968
19.7869       229500       19.9658
19.7955       229600       19.9635
19.8041       229700       19.9613
19.8128       229800       19.9591
19.8214       229900       19.9569
19.83       230000       19.9547
19.8386       230100       19.9525
19.8472       230200       19.9503
19.8559       230300       19.9481
19.8645       230400       19.9459
19.8731       230500       19.9437
19.8817       230600       19.9415
19.8903       230700       19.9393
19.899       230800       19.9371
19.9076       230900       19.9349
19.9162       231000       19.9327
19.9248       231100       19.9305
19.9335       231200       19.9283
19.9421       231300       19.9261
19.9507       231400       19.9239
19.9593       231500       19.9217
19.9679       231600       19.9195
19.9766       231700       19.9174
19.9852       231800       19.9152
19.9938       231900       19.913
20.0024       232000       19.9108
20.0111       232100       19.9086
20.0197       232200       19.9064
20.0283       232300       19.9043
20.0369       232400       19.9021
20.0455       232500       19.8999
20.0542       232600       19.8977
20.0628       232700       19.8956
20.0714       232800       19.8934
20.08       232900       19.8912
20.0886       233000       19.8891
20.0973       233100       19.8869
20.1059       233200       19.8847
20.1145       233300       19.8826
20.1231       233400       19.8804
20.1318       233500       19.8782
20.1404       233600       19.8761
20.149       233700       19.8739
20.1576       233800       19.8718
20.1662       233900       19.8696
20.1749       234000       19.8674
20.1835       234100       19.8653
20.1921       234200       19.8631
20.2007       234300       19.861
20.2094       234400       19.8588
20.218       234500       19.8567
20.2266       234600       19.8545
20.2352       234700       19.8524
20.2438       234800       19.8502
20.2525       234900       19.8481
20.2611       235000       19.8459
20.2697       235100       19.8438
20.2783       235200       19.8417
20.2869       235300       19.8395
20.2956       235400       19.8374
20.3042       235500       19.8352
20.3128       235600       19.8331
20.3214       235700       19.831
20.3301       235800       19.8288
20.3387       235900       19.8267
20.3473       236000       19.8246
20.3559       236100       19.8225
20.3645       236200       19.8203
20.3732       236300       19.8182
20.3818       236400       19.8161
20.3904       236500       19.8139
20.399       236600       19.8118
20.4077       236700       19.8097
20.4163       236800       19.8076
20.4249       236900       19.8055
20.4335       237000       19.8033
20.4421       237100       19.8012
20.4508       237200       19.7991
20.4594       237300       19.797
20.468       237400       19.7949
20.4766       237500       19.7928
20.4852       237600       19.7907
20.4939       237700       19.7885
20.5025       237800       19.7864
20.5111       237900       19.7843
20.5197       238000       19.7822
20.5284       238100       19.7801
20.537       238200       19.778
20.5456       238300       19.7759
20.5542       238400       19.7738
20.5628       238500       19.7717
20.5715       238600       19.7696
20.5801       238700       19.7675
20.5887       238800       19.7654
20.5973       238900       19.7633
20.606       239000       19.7612
20.6146       239100       19.7591
20.6232       239200       19.757
20.6318       239300       19.755
20.6404       239400       19.7529
20.6491       239500       19.7508
20.6577       239600       19.7487
20.6663       239700       19.7466
20.6749       239800       19.7445
20.6835       239900       19.7424
20.6922       240000       19.7404
20.7008       240100       19.7383
20.7094       240200       19.7362
20.718       240300       19.7341
20.7267       240400       19.732
20.7353       240500       19.73
20.7439       240600       19.7279
20.7525       240700       19.7258
20.7611       240800       19.7237
20.7698       240900       19.7217
20.7784       241000       19.7196
20.787       241100       19.7175
20.7956       241200       19.7155
20.8043       241300       19.7134
20.8129       241400       19.7113
20.8215       241500       19.7093
20.8301       241600       19.7072
20.8387       241700       19.7051
20.8474       241800       19.7031
20.856       241900       19.701
20.8646       242000       19.699
20.8732       242100       19.6969
20.8818       242200       19.6949
20.8905       242300       19.6928
20.8991       242400       19.6907
20.9077       242500       19.6887
20.9163       242600       19.6866
20.925       242700       19.6846
20.9336       242800       19.6825
20.9422       242900       19.6805
20.9508       243000       19.6785
20.9594       243100       19.6764
20.9681       243200       19.6744
20.9767       243300       19.6723
20.9853       243400       19.6703
20.9939       243500       19.6682
21.0026       243600       19.6662
21.0112       243700       19.6642
21.0198       243800       19.6621
21.0284       243900       19.6601
21.037       244000       19.6581
21.0457       244100       19.656
21.0543       244200       19.654
21.0629       244300       19.652
21.0715       244400       19.6499
21.0801       244500       19.6479
21.0888       244600       19.6459
21.0974       244700       19.6438
21.106       244800       19.6418
21.1146       244900       19.6398
21.1233       245000       19.6378
21.1319       245100       19.6357
21.1405       245200       19.6337
21.1491       245300       19.6317
21.1577       245400       19.6297
21.1664       245500       19.6277
21.175       245600       19.6257
21.1836       245700       19.6236
21.1922       245800       19.6216
21.2009       245900       19.6196
21.2095       246000       19.6176
21.2181       246100       19.6156
21.2267       246200       19.6136
21.2353       246300       19.6116
21.244       246400       19.6096
21.2526       246500       19.6076
21.2612       246600       19.6056
21.2698       246700       19.6036
21.2784       246800       19.6015
21.2871       246900       19.5995
21.2957       247000       19.5975
21.3043       247100       19.5955
21.3129       247200       19.5936
21.3216       247300       19.5916
21.3302       247400       19.5896
21.3388       247500       19.5876
21.3474       247600       19.5856
21.356       247700       19.5836
21.3647       247800       19.5816
21.3733       247900       19.5796
21.3819       248000       19.5776
21.3905       248100       19.5756
21.3992       248200       19.5736
21.4078       248300       19.5716
21.4164       248400       19.5697
21.425       248500       19.5677
21.4336       248600       19.5657
21.4423       248700       19.5637
21.4509       248800       19.5617
21.4595       248900       19.5598
21.4681       249000       19.5578
21.4767       249100       19.5558
21.4854       249200       19.5538
21.494       249300       19.5518
21.5026       249400       19.5499
21.5112       249500       19.5479
21.5199       249600       19.5459
21.5285       249700       19.544
21.5371       249800       19.542
21.5457       249900       19.54
21.5543       250000       19.5381
21.563       250100       19.5361
21.5716       250200       19.5341
21.5802       250300       19.5322
21.5888       250400       19.5302
21.5975       250500       19.5282
21.6061       250600       19.5263
21.6147       250700       19.5243
21.6233       250800       19.5224
21.6319       250900       19.5204
21.6406       251000       19.5184
21.6492       251100       19.5165
21.6578       251200       19.5145
21.6664       251300       19.5126
21.675       251400       19.5106
21.6837       251500       19.5087
21.6923       251600       19.5067
21.7009       251700       19.5048
21.7095       251800       19.5028
21.7182       251900       19.5009
21.7268       252000       19.4989
21.7354       252100       19.497
21.744       252200       19.4951
21.7526       252300       19.4931
21.7613       252400       19.4912
21.7699       252500       19.4892
21.7785       252600       19.4873
21.7871       252700       19.4854
21.7958       252800       19.4834
21.8044       252900       19.4815
21.813       253000       19.4796
21.8216       253100       19.4776
21.8302       253200       19.4757
21.8389       253300       19.4738
21.8475       253400       19.4718
21.8561       253500       19.4699
21.8647       253600       19.468
21.8733       253700       19.466
21.882       253800       19.4641
21.8906       253900       19.4622
21.8992       254000       19.4603
21.9078       254100       19.4583
21.9165       254200       19.4564
21.9251       254300       19.4545
21.9337       254400       19.4526
21.9423       254500       19.4507
21.9509       254600       19.4487
21.9596       254700       19.4468
21.9682       254800       19.4449
21.9768       254900       19.443
21.9854       255000       19.4411
21.9941       255100       19.4392
22.0027       255200       19.4373
22.0113       255300       19.4353
22.0199       255400       19.4334
22.0285       255500       19.4315
22.0372       255600       19.4296
22.0458       255700       19.4277
22.0544       255800       19.4258
22.063       255900       19.4239
22.0716       256000       19.422
22.0803       256100       19.4201
22.0889       256200       19.4182
22.0975       256300       19.4163
22.1061       256400       19.4144
22.1148       256500       19.4125
22.1234       256600       19.4106
22.132       256700       19.4087
22.1406       256800       19.4068
22.1492       256900       19.4049
22.1579       257000       19.403
22.1665       257100       19.4011
22.1751       257200       19.3992
22.1837       257300       19.3974
22.1924       257400       19.3955
22.201       257500       19.3936
22.2096       257600       19.3917
22.2182       257700       19.3898
22.2268       257800       19.3879
22.2355       257900       19.386
22.2441       258000       19.3842
22.2527       258100       19.3823
22.2613       258200       19.3804
22.2699       258300       19.3785
22.2786       258400       19.3766
22.2872       258500       19.3748
22.2958       258600       19.3729
22.3044       258700       19.371
22.3131       258800       19.3691
22.3217       258900       19.3673
22.3303       259000       19.3654
22.3389       259100       19.3635
22.3475       259200       19.3616
22.3562       259300       19.3598
22.3648       259400       19.3579
22.3734       259500       19.356
22.382       259600       19.3542
22.3907       259700       19.3523
22.3993       259800       19.3504
22.4079       259900       19.3486
22.4165       260000       19.3467
22.4251       260100       19.3449
22.4338       260200       19.343
22.4424       260300       19.3411
22.451       260400       19.3393
22.4596       260500       19.3374
22.4682       260600       19.3356
22.4769       260700       19.3337
22.4855       260800       19.3319
22.4941       260900       19.33
22.5027       261000       19.3282
22.5114       261100       19.3263
22.52       261200       19.3245
22.5286       261300       19.3226
22.5372       261400       19.3208
22.5458       261500       19.3189
22.5545       261600       19.3171
22.5631       261700       19.3152
22.5717       261800       19.3134
22.5803       261900       19.3115
22.589       262000       19.3097
22.5976       262100       19.3078
22.6062       262200       19.306
22.6148       262300       19.3042
22.6234       262400       19.3023
22.6321       262500       19.3005
22.6407       262600       19.2987
22.6493       262700       19.2968
22.6579       262800       19.295
22.6665       262900       19.2932
22.6752       263000       19.2913
22.6838       263100       19.2895
22.6924       263200       19.2877
22.701       263300       19.2858
22.7097       263400       19.284
22.7183       263500       19.2822
22.7269       263600       19.2803
22.7355       263700       19.2785
22.7441       263800       19.2767
22.7528       263900       19.2749
22.7614       264000       19.273
22.77       264100       19.2712
22.7786       264200       19.2694
22.7873       264300       19.2676
22.7959       264400       19.2658
22.8045       264500       19.2639
22.8131       264600       19.2621
22.8217       264700       19.2603
22.8304       264800       19.2585
22.839       264900       19.2567
22.8476       265000       19.2549
22.8562       265100       19.2531
22.8648       265200       19.2512
22.8735       265300       19.2494
22.8821       265400       19.2476
22.8907       265500       19.2458
22.8993       265600       19.244
22.908       265700       19.2422
22.9166       265800       19.2404
22.9252       265900       19.2386
22.9338       266000       19.2368
22.9424       266100       19.235
22.9511       266200       19.2332
22.9597       266300       19.2314
22.9683       266400       19.2296
22.9769       266500       19.2278
22.9856       266600       19.226
22.9942       266700       19.2242
23.0028       266800       19.2224
23.0114       266900       19.2206
23.02       267000       19.2188
23.0287       267100       19.217
23.0373       267200       19.2152
23.0459       267300       19.2134
23.0545       267400       19.2116
23.0631       267500       19.2098
23.0718       267600       19.2081
23.0804       267700       19.2063
23.089       267800       19.2045
23.0976       267900       19.2027
23.1063       268000       19.2009
23.1149       268100       19.1991
23.1235       268200       19.1973
23.1321       268300       19.1956
23.1407       268400       19.1938
23.1494       268500       19.192
23.158       268600       19.1902
23.1666       268700       19.1884
23.1752       268800       19.1867
23.1839       268900       19.1849
23.1925       269000       19.1831
23.2011       269100       19.1813
23.2097       269200       19.1796
23.2183       269300       19.1778
23.227       269400       19.176
23.2356       269500       19.1743
23.2442       269600       19.1725
23.2528       269700       19.1707
23.2614       269800       19.1689
23.2701       269900       19.1672
23.2787       270000       19.1654
23.2873       270100       19.1636
23.2959       270200       19.1619
23.3046       270300       19.1601
23.3132       270400       19.1584
23.3218       270500       19.1566
23.3304       270600       19.1548
23.339       270700       19.1531
23.3477       270800       19.1513
23.3563       270900       19.1496
23.3649       271000       19.1478
23.3735       271100       19.146
23.3822       271200       19.1443
23.3908       271300       19.1425
23.3994       271400       19.1408
23.408       271500       19.139
23.4166       271600       19.1373
23.4253       271700       19.1355
23.4339       271800       19.1338
23.4425       271900       19.132
23.4511       272000       19.1303
23.4597       272100       19.1285
23.4684       272200       19.1268
23.477       272300       19.125
23.4856       272400       19.1233
23.4942       272500       19.1215
23.5029       272600       19.1198
23.5115       272700       19.1181
23.5201       272800       19.1163
23.5287       272900       19.1146
23.5373       273000       19.1128
23.546       273100       19.1111
23.5546       273200       19.1094
23.5632       273300       19.1076
23.5718       273400       19.1059
23.5805       273500       19.1042
23.5891       273600       19.1024
23.5977       273700       19.1007
23.6063       273800       19.099
23.6149       273900       19.0972
23.6236       274000       19.0955
23.6322       274100       19.0938
23.6408       274200       19.092
23.6494       274300       19.0903
23.658       274400       19.0886
23.6667       274500       19.0869
23.6753       274600       19.0851
23.6839       274700       19.0834
23.6925       274800       19.0817
23.7012       274900       19.08
23.7098       275000       19.0782
23.7184       275100       19.0765
23.727       275200       19.0748
23.7356       275300       19.0731
23.7443       275400       19.0714
23.7529       275500       19.0697
23.7615       275600       19.0679
23.7701       275700       19.0662
23.7788       275800       19.0645
23.7874       275900       19.0628
23.796       276000       19.0611
23.8046       276100       19.0594
23.8132       276200       19.0577
23.8219       276300       19.0559
23.8305       276400       19.0542
23.8391       276500       19.0525
23.8477       276600       19.0508
23.8563       276700       19.0491
23.865       276800       19.0474
23.8736       276900       19.0457
23.8822       277000       19.044
23.8908       277100       19.0423
23.8995       277200       19.0406
23.9081       277300       19.0389
23.9167       277400       19.0372
23.9253       277500       19.0355
23.9339       277600       19.0338
23.9426       277700       19.0321
23.9512       277800       19.0304
23.9598       277900       19.0287
23.9684       278000       19.027
23.9771       278100       19.0253
23.9857       278200       19.0236
23.9943       278300       19.0219
24.0029       278400       19.0202
24.0115       278500       19.0185
24.0202       278600       19.0169
24.0288       278700       19.0152
24.0374       278800       19.0135
24.046       278900       19.0118
24.0546       279000       19.0101
24.0633       279100       19.0084
24.0719       279200       19.0067
24.0805       279300       19.005
24.0891       279400       19.0034
24.0978       279500       19.0017
24.1064       279600       19
24.115       279700       18.9983
24.1236       279800       18.9966
24.1322       279900       18.995
24.1409       280000       18.9933
24.1495       280100       18.9916
24.1581       280200       18.9899
24.1667       280300       18.9883
24.1754       280400       18.9866
24.184       280500       18.9849
24.1926       280600       18.9832
24.2012       280700       18.9816
24.2098       280800       18.9799
24.2185       280900       18.9782
24.2271       281000       18.9765
24.2357       281100       18.9749
24.2443       281200       18.9732
24.2529       281300       18.9715
24.2616       281400       18.9699
24.2702       281500       18.9682
24.2788       281600       18.9665
24.2874       281700       18.9649
24.2961       281800       18.9632
24.3047       281900       18.9616
24.3133       282000       18.9599
24.3219       282100       18.9582
24.3305       282200       18.9566
24.3392       282300       18.9549
24.3478       282400       18.9533
24.3564       282500       18.9516
24.365       282600       18.9499
24.3737       282700       18.9483
24.3823       282800       18.9466
24.3909       282900       18.945
24.3995       283000       18.9433
24.4081       283100       18.9417
24.4168       283200       18.94
24.4254       283300       18.9384
24.434       283400       18.9367
24.4426       283500       18.9351
24.4512       283600       18.9334
24.4599       283700       18.9318
24.4685       283800       18.9301
24.4771       283900       18.9285
24.4857       284000       18.9268
24.4944       284100       18.9252
24.503       284200       18.9235
24.5116       284300       18.9219
24.5202       284400       18.9203
24.5288       284500       18.9186
24.5375       284600       18.917
24.5461       284700       18.9153
24.5547       284800       18.9137
24.5633       284900       18.9121
24.572       285000       18.9104
24.5806       285100       18.9088
24.5892       285200       18.9072
24.5978       285300       18.9055
24.6064       285400       18.9039
24.6151       285500       18.9023
24.6237       285600       18.9006
24.6323       285700       18.899
24.6409       285800       18.8974
24.6495       285900       18.8957
24.6582       286000       18.8941
24.6668       286100       18.8925
24.6754       286200       18.8908
24.684       286300       18.8892
24.6927       286400       18.8876
24.7013       286500       18.886
24.7099       286600       18.8843
24.7185       286700       18.8827
24.7271       286800       18.8811
24.7358       286900       18.8795
24.7444       287000       18.8779
24.753       287100       18.8762
24.7616       287200       18.8746
24.7703       287300       18.873
24.7789       287400       18.8714
24.7875       287500       18.8698
24.7961       287600       18.8681
24.8047       287700       18.8665
24.8134       287800       18.8649
24.822       287900       18.8633
24.8306       288000       18.8617
24.8392       288100       18.8601
24.8478       288200       18.8585
24.8565       288300       18.8569
24.8651       288400       18.8552
24.8737       288500       18.8536
24.8823       288600       18.852
24.891       288700       18.8504
24.8996       288800       18.8488
24.9082       288900       18.8472
24.9168       289000       18.8456
24.9254       289100       18.844
24.9341       289200       18.8424
24.9427       289300       18.8408
24.9513       289400       18.8392
24.9599       289500       18.8376
24.9686       289600       18.836
24.9772       289700       18.8344
24.9858       289800       18.8328
24.9944       289900       18.8312
25.003       290000       18.8296
25.0117       290100       18.828
25.0203       290200       18.8264
25.0289       290300       18.8248
25.0375       290400       18.8232
25.0461       290500       18.8216
25.0548       290600       18.82
25.0634       290700       18.8184
25.072       290800       18.8168
25.0806       290900       18.8153
25.0893       291000       18.8137
25.0979       291100       18.8121
25.1065       291200       18.8105
25.1151       291300       18.8089
25.1237       291400       18.8073
25.1324       291500       18.8057
25.141       291600       18.8041
25.1496       291700       18.8026
25.1582       291800       18.801
25.1669       291900       18.7994
25.1755       292000       18.7978
25.1841       292100       18.7962
25.1927       292200       18.7946
25.2013       292300       18.7931
25.21       292400       18.7915
25.2186       292500       18.7899
25.2272       292600       18.7883
25.2358       292700       18.7868
25.2444       292800       18.7852
25.2531       292900       18.7836
25.2617       293000       18.782
25.2703       293100       18.7805
25.2789       293200       18.7789
25.2876       293300       18.7773
25.2962       293400       18.7757
25.3048       293500       18.7742
25.3134       293600       18.7726
25.322       293700       18.771
25.3307       293800       18.7695
25.3393       293900       18.7679
25.3479       294000       18.7663
25.3565       294100       18.7648
25.3652       294200       18.7632
25.3738       294300       18.7616
25.3824       294400       18.7601
25.391       294500       18.7585
25.3996       294600       18.7569
25.4083       294700       18.7554
25.4169       294800       18.7538
25.4255       294900       18.7523
25.4341       295000       18.7507
25.4427       295100       18.7491
25.4514       295200       18.7476
25.46       295300       18.746
25.4686       295400       18.7445
25.4772       295500       18.7429
25.4859       295600       18.7414
25.4945       295700       18.7398
25.5031       295800       18.7383
25.5117       295900       18.7367
25.5203       296000       18.7352
25.529       296100       18.7336
25.5376       296200       18.7321
25.5462       296300       18.7305
25.5548       296400       18.729
25.5635       296500       18.7274
25.5721       296600       18.7259
25.5807       296700       18.7243
25.5893       296800       18.7228
25.5979       296900       18.7212
25.6066       297000       18.7197
25.6152       297100       18.7181
25.6238       297200       18.7166
25.6324       297300       18.715
25.641       297400       18.7135
25.6497       297500       18.712
25.6583       297600       18.7104
25.6669       297700       18.7089
25.6755       297800       18.7073
25.6842       297900       18.7058
25.6928       298000       18.7043
25.7014       298100       18.7027
25.71       298200       18.7012
25.7186       298300       18.6997
25.7273       298400       18.6981
25.7359       298500       18.6966
25.7445       298600       18.6951
25.7531       298700       18.6935
25.7618       298800       18.692
25.7704       298900       18.6905
25.779       299000       18.6889
25.7876       299100       18.6874
25.7962       299200       18.6859
25.8049       299300       18.6844
25.8135       299400       18.6828
25.8221       299500       18.6813
25.8307       299600       18.6798
25.8393       299700       18.6783
25.848       299800       18.6767
25.8566       299900       18.6752
25.8652       300000       18.6737
25.8738       300100       18.6722
25.8825       300200       18.6706
25.8911       300300       18.6691
25.8997       300400       18.6676
25.9083       300500       18.6661
25.9169       300600       18.6646
25.9256       300700       18.663
25.9342       300800       18.6615
25.9428       300900       18.66
25.9514       301000       18.6585
25.9601       301100       18.657
25.9687       301200       18.6555
25.9773       301300       18.654
25.9859       301400       18.6524
25.9945       301500       18.6509
26.0032       301600       18.6494
26.0118       301700       18.6479
26.0204       301800       18.6464
26.029       301900       18.6449
26.0376       302000       18.6434
26.0463       302100       18.6419
26.0549       302200       18.6404
26.0635       302300       18.6389
26.0721       302400       18.6374
26.0808       302500       18.6359
26.0894       302600       18.6343
26.098       302700       18.6328
26.1066       302800       18.6313
26.1152       302900       18.6298
26.1239       303000       18.6283
26.1325       303100       18.6268
26.1411       303200       18.6253
26.1497       303300       18.6238
26.1584       303400       18.6223
26.167       303500       18.6208
26.1756       303600       18.6193
26.1842       303700       18.6178
26.1928       303800       18.6164
26.2015       303900       18.6149
26.2101       304000       18.6134
26.2187       304100       18.6119
26.2273       304200       18.6104
26.2359       304300       18.6089
26.2446       304400       18.6074
26.2532       304500       18.6059
26.2618       304600       18.6044
26.2704       304700       18.6029
26.2791       304800       18.6014
26.2877       304900       18.5999
26.2963       305000       18.5985
26.3049       305100       18.597
26.3135       305200       18.5955
26.3222       305300       18.594
26.3308       305400       18.5925
26.3394       305500       18.591
26.348       305600       18.5895
26.3567       305700       18.5881
26.3653       305800       18.5866
26.3739       305900       18.5851
26.3825       306000       18.5836
26.3911       306100       18.5821
26.3998       306200       18.5807
26.4084       306300       18.5792
26.417       306400       18.5777
26.4256       306500       18.5762
26.4342       306600       18.5748
26.4429       306700       18.5733
26.4515       306800       18.5718
26.4601       306900       18.5703
26.4687       307000       18.5689
26.4774       307100       18.5674
26.486       307200       18.5659
26.4946       307300       18.5644
26.5032       307400       18.563
26.5118       307500       18.5615
26.5205       307600       18.56
26.5291       307700       18.5586
26.5377       307800       18.5571
26.5463       307900       18.5556
26.555       308000       18.5542
26.5636       308100       18.5527
26.5722       308200       18.5512
26.5808       308300       18.5498
26.5894       308400       18.5483
26.5981       308500       18.5468
26.6067       308600       18.5454
26.6153       308700       18.5439
26.6239       308800       18.5424
26.6325       308900       18.541
26.6412       309000       18.5395
26.6498       309100       18.5381
26.6584       309200       18.5366
26.667       309300       18.5351
26.6757       309400       18.5337
26.6843       309500       18.5322
26.6929       309600       18.5308
26.7015       309700       18.5293
26.7101       309800       18.5279
26.7188       309900       18.5264
26.7274       310000       18.525
26.736       310100       18.5235
26.7446       310200       18.5221
26.7533       310300       18.5206
26.7619       310400       18.5192
26.7705       310500       18.5177
26.7791       310600       18.5163
26.7877       310700       18.5148
26.7964       310800       18.5134
26.805       310900       18.5119
26.8136       311000       18.5105
26.8222       311100       18.509
26.8308       311200       18.5076
26.8395       311300       18.5061
26.8481       311400       18.5047
26.8567       311500       18.5032
26.8653       311600       18.5018
26.874       311700       18.5004
26.8826       311800       18.4989
26.8912       311900       18.4975
26.8998       312000       18.496
26.9084       312100       18.4946
26.9171       312200       18.4932
26.9257       312300       18.4917
26.9343       312400       18.4903
26.9429       312500       18.4888
26.9516       312600       18.4874
26.9602       312700       18.486
26.9688       312800       18.4845
26.9774       312900       18.4831
26.986       313000       18.4817
26.9947       313100       18.4802
27.0033       313200       18.4788
27.0119       313300       18.4774
27.0205       313400       18.4759
27.0291       313500       18.4745
27.0378       313600       18.4731
27.0464       313700       18.4716
27.055       313800       18.4702
27.0636       313900       18.4688
27.0723       314000       18.4674
27.0809       314100       18.4659
27.0895       314200       18.4645
27.0981       314300       18.4631
27.1067       314400       18.4617
27.1154       314500       18.4602
27.124       314600       18.4588
27.1326       314700       18.4574
27.1412       314800       18.456
27.1499       314900       18.4546
27.1585       315000       18.4531
27.1671       315100       18.4517
27.1757       315200       18.4503
27.1843       315300       18.4489
27.193       315400       18.4475
27.2016       315500       18.446
27.2102       315600       18.4446
27.2188       315700       18.4432
27.2274       315800       18.4418
27.2361       315900       18.4404
27.2447       316000       18.439
27.2533       316100       18.4375
27.2619       316200       18.4361
27.2706       316300       18.4347
27.2792       316400       18.4333
27.2878       316500       18.4319
27.2964       316600       18.4305
27.305       316700       18.4291
27.3137       316800       18.4277
27.3223       316900       18.4263
27.3309       317000       18.4248
27.3395       317100       18.4234
27.3482       317200       18.422
27.3568       317300       18.4206
27.3654       317400       18.4192
27.374       317500       18.4178
27.3826       317600       18.4164
27.3913       317700       18.415
27.3999       317800       18.4136
27.4085       317900       18.4122
27.4171       318000       18.4108
27.4257       318100       18.4094
27.4344       318200       18.408
27.443       318300       18.4066
27.4516       318400       18.4052
27.4602       318500       18.4038
27.4689       318600       18.4024
27.4775       318700       18.401
27.4861       318800       18.3996
27.4947       318900       18.3982
27.5033       319000       18.3968
27.512       319100       18.3954
27.5206       319200       18.394
27.5292       319300       18.3926
27.5378       319400       18.3912
27.5465       319500       18.3899
27.5551       319600       18.3885
27.5637       319700       18.3871
27.5723       319800       18.3857
27.5809       319900       18.3843
27.5896       320000       18.3829
27.5982       320100       18.3815
27.6068       320200       18.3801
27.6154       320300       18.3787
27.624       320400       18.3773
27.6327       320500       18.376
27.6413       320600       18.3746
27.6499       320700       18.3732
27.6585       320800       18.3718
27.6672       320900       18.3704
27.6758       321000       18.369
27.6844       321100       18.3677
27.693       321200       18.3663
27.7016       321300       18.3649
27.7103       321400       18.3635
27.7189       321500       18.3621
27.7275       321600       18.3608
27.7361       321700       18.3594
27.7448       321800       18.358
27.7534       321900       18.3566
27.762       322000       18.3552
27.7706       322100       18.3539
27.7792       322200       18.3525
27.7879       322300       18.3511
27.7965       322400       18.3497
27.8051       322500       18.3484
27.8137       322600       18.347
27.8223       322700       18.3456
27.831       322800       18.3442
27.8396       322900       18.3429
27.8482       323000       18.3415
27.8568       323100       18.3401
27.8655       323200       18.3388
27.8741       323300       18.3374
27.8827       323400       18.336
27.8913       323500       18.3347
27.8999       323600       18.3333
27.9086       323700       18.3319
27.9172       323800       18.3306
27.9258       323900       18.3292
27.9344       324000       18.3278
27.9431       324100       18.3265
27.9517       324200       18.3251
27.9603       324300       18.3237
27.9689       324400       18.3224
27.9775       324500       18.321
27.9862       324600       18.3197
27.9948       324700       18.3183
28.0034       324800       18.3169
28.012       324900       18.3156
28.0206       325000       18.3142
28.0293       325100       18.3129
28.0379       325200       18.3115
28.0465       325300       18.3101
28.0551       325400       18.3088
28.0638       325500       18.3074
28.0724       325600       18.3061
28.081       325700       18.3047
28.0896       325800       18.3034
28.0982       325900       18.302
28.1069       326000       18.3007
28.1155       326100       18.2993
28.1241       326200       18.298
28.1327       326300       18.2966
28.1414       326400       18.2953
28.15       326500       18.2939
28.1586       326600       18.2926
28.1672       326700       18.2912
28.1758       326800       18.2899
28.1845       326900       18.2885
28.1931       327000       18.2872
28.2017       327100       18.2858
28.2103       327200       18.2845
28.2189       327300       18.2831
28.2276       327400       18.2818
28.2362       327500       18.2804
28.2448       327600       18.2791
28.2534       327700       18.2777
28.2621       327800       18.2764
28.2707       327900       18.2751
28.2793       328000       18.2737
28.2879       328100       18.2724
28.2965       328200       18.271
28.3052       328300       18.2697
28.3138       328400       18.2684
28.3224       328500       18.267
28.331       328600       18.2657
28.3397       328700       18.2644
28.3483       328800       18.263
28.3569       328900       18.2617
28.3655       329000       18.2603
28.3741       329100       18.259
28.3828       329200       18.2577
28.3914       329300       18.2563
28.4       329400       18.255
28.4086       329500       18.2537
28.4172       329600       18.2523
28.4259       329700       18.251
28.4345       329800       18.2497
28.4431       329900       18.2483
28.4517       330000       18.247
28.4604       330100       18.2457
28.469       330200       18.2444
28.4776       330300       18.243
28.4862       330400       18.2417
28.4948       330500       18.2404
28.5035       330600       18.2391
28.5121       330700       18.2377
28.5207       330800       18.2364
28.5293       330900       18.2351
28.538       331000       18.2338
28.5466       331100       18.2324
28.5552       331200       18.2311
28.5638       331300       18.2298
28.5724       331400       18.2285
28.5811       331500       18.2271
28.5897       331600       18.2258
28.5983       331700       18.2245
28.6069       331800       18.2232
28.6155       331900       18.2219
28.6242       332000       18.2205
28.6328       332100       18.2192
28.6414       332200       18.2179
28.65       332300       18.2166
28.6587       332400       18.2153
28.6673       332500       18.214
28.6759       332600       18.2126
28.6845       332700       18.2113
28.6931       332800       18.21
28.7018       332900       18.2087
28.7104       333000       18.2074
28.719       333100       18.2061
28.7276       333200       18.2048
28.7363       333300       18.2035
28.7449       333400       18.2022
28.7535       333500       18.2008
28.7621       333600       18.1995
28.7707       333700       18.1982
28.7794       333800       18.1969
28.788       333900       18.1956
28.7966       334000       18.1943
28.8052       334100       18.193
28.8138       334200       18.1917
28.8225       334300       18.1904
28.8311       334400       18.1891
28.8397       334500       18.1878
28.8483       334600       18.1865
28.857       334700       18.1852
28.8656       334800       18.1839
28.8742       334900       18.1826
28.8828       335000       18.1813
28.8914       335100       18.18
28.9001       335200       18.1787
28.9087       335300       18.1774
28.9173       335400       18.1761
28.9259       335500       18.1748
28.9346       335600       18.1735
28.9432       335700       18.1722
28.9518       335800       18.1709
28.9604       335900       18.1696
28.969       336000       18.1683
28.9777       336100       18.167
28.9863       336200       18.1657
28.9949       336300       18.1644
29.0035       336400       18.1631
29.0121       336500       18.1618
29.0208       336600       18.1605
29.0294       336700       18.1592
29.038       336800       18.1579
29.0466       336900       18.1566
29.0553       337000       18.1554
29.0639       337100       18.1541
29.0725       337200       18.1528
29.0811       337300       18.1515
29.0897       337400       18.1502
29.0984       337500       18.1489
29.107       337600       18.1476
29.1156       337700       18.1463
29.1242       337800       18.145
29.1329       337900       18.1438
29.1415       338000       18.1425
29.1501       338100       18.1412
29.1587       338200       18.1399
29.1673       338300       18.1386
29.176       338400       18.1373
29.1846       338500       18.1361
29.1932       338600       18.1348
29.2018       338700       18.1335
29.2104       338800       18.1322
29.2191       338900       18.1309
29.2277       339000       18.1297
29.2363       339100       18.1284
29.2449       339200       18.1271
29.2536       339300       18.1258
29.2622       339400       18.1245
29.2708       339500       18.1233
29.2794       339600       18.122
29.288       339700       18.1207
29.2967       339800       18.1194
29.3053       339900       18.1182
29.3139       340000       18.1169
29.3225       340100       18.1156
29.3312       340200       18.1143
29.3398       340300       18.1131
29.3484       340400       18.1118
29.357       340500       18.1105
29.3656       340600       18.1093
29.3743       340700       18.108
29.3829       340800       18.1067
29.3915       340900       18.1054
29.4001       341000       18.1042
29.4087       341100       18.1029
29.4174       341200       18.1016
29.426       341300       18.1004
29.4346       341400       18.0991
29.4432       341500       18.0978
29.4519       341600       18.0966
29.4605       341700       18.0953
29.4691       341800       18.094
29.4777       341900       18.0928
29.4863       342000       18.0915
29.495       342100       18.0903
29.5036       342200       18.089
29.5122       342300       18.0877
29.5208       342400       18.0865
29.5295       342500       18.0852
29.5381       342600       18.084
29.5467       342700       18.0827
29.5553       342800       18.0814
29.5639       342900       18.0802
29.5726       343000       18.0789
29.5812       343100       18.0777
29.5898       343200       18.0764
29.5984       343300       18.0751
29.607       343400       18.0739
29.6157       343500       18.0726
29.6243       343600       18.0714
29.6329       343700       18.0701
29.6415       343800       18.0689
29.6502       343900       18.0676
29.6588       344000       18.0664
29.6674       344100       18.0651
29.676       344200       18.0639
29.6846       344300       18.0626
29.6933       344400       18.0614
29.7019       344500       18.0601
29.7105       344600       18.0589
29.7191       344700       18.0576
29.7278       344800       18.0564
29.7364       344900       18.0551
29.745       345000       18.0539
29.7536       345100       18.0526
29.7622       345200       18.0514
29.7709       345300       18.0501
29.7795       345400       18.0489
29.7881       345500       18.0476
29.7967       345600       18.0464
29.8053       345700       18.0451
29.814       345800       18.0439
29.8226       345900       18.0427
29.8312       346000       18.0414
29.8398       346100       18.0402
29.8485       346200       18.0389
29.8571       346300       18.0377
29.8657       346400       18.0364
29.8743       346500       18.0352
29.8829       346600       18.034
29.8916       346700       18.0327
29.9002       346800       18.0315
29.9088       346900       18.0303
29.9174       347000       18.029
29.9261       347100       18.0278
29.9347       347200       18.0265
29.9433       347300       18.0253
29.9519       347400       18.0241
29.9605       347500       18.0228
29.9692       347600       18.0216
29.9778       347700       18.0204
29.9864       347800       18.0191
29.995       347900       18.0179
30.0036       348000       18.0167
30.0123       348100       18.0154
30.0209       348200       18.0142
30.0295       348300       18.013
30.0381       348400       18.0117
30.0468       348500       18.0105
30.0554       348600       18.0093
30.064       348700       18.0081
30.0726       348800       18.0068
30.0812       348900       18.0056
30.0899       349000       18.0044
30.0985       349100       18.0031
30.1071       349200       18.0019
30.1157       349300       18.0007
30.1244       349400       17.9995
30.133       349500       17.9982
30.1416       349600       17.997
30.1502       349700       17.9958
30.1588       349800       17.9946
30.1675       349900       17.9933
30.1761       350000       17.9921
30.1847       350100       17.9909
30.1933       350200       17.9897
30.2019       350300       17.9885
30.2106       350400       17.9872
30.2192       350500       17.986
30.2278       350600       17.9848
30.2364       350700       17.9836
30.2451       350800       17.9824
30.2537       350900       17.9811
30.2623       351000       17.9799
30.2709       351100       17.9787
30.2795       351200       17.9775
30.2882       351300       17.9763
30.2968       351400       17.9751
30.3054       351500       17.9738
30.314       351600       17.9726
30.3227       351700       17.9714
30.3313       351800       17.9702
30.3399       351900       17.969
30.3485       352000       17.9678
30.3571       352100       17.9666
30.3658       352200       17.9654
30.3744       352300       17.9641
30.383       352400       17.9629
30.3916       352500       17.9617
30.4002       352600       17.9605
30.4089       352700       17.9593
30.4175       352800       17.9581
30.4261       352900       17.9569
30.4347       353000       17.9557
30.4434       353100       17.9545
30.452       353200       17.9533
30.4606       353300       17.9521
30.4692       353400       17.9509
30.4778       353500       17.9497
30.4865       353600       17.9485
30.4951       353700       17.9472
30.5037       353800       17.946
30.5123       353900       17.9448
30.521       354000       17.9436
30.5296       354100       17.9424
30.5382       354200       17.9412
30.5468       354300       17.94
30.5554       354400       17.9388
30.5641       354500       17.9376
30.5727       354600       17.9364
30.5813       354700       17.9352
30.5899       354800       17.934
30.5985       354900       17.9328
30.6072       355000       17.9316
30.6158       355100       17.9304
30.6244       355200       17.9292
30.633       355300       17.928
30.6417       355400       17.9269
30.6503       355500       17.9257
30.6589       355600       17.9245
30.6675       355700       17.9233
30.6761       355800       17.9221
30.6848       355900       17.9209
30.6934       356000       17.9197
30.702       356100       17.9185
30.7106       356200       17.9173
30.7193       356300       17.9161
30.7279       356400       17.9149
30.7365       356500       17.9137
30.7451       356600       17.9125
30.7537       356700       17.9114
30.7624       356800       17.9102
30.771       356900       17.909
30.7796       357000       17.9078
30.7882       357100       17.9066
30.7968       357200       17.9054
30.8055       357300       17.9042
30.8141       357400       17.903
30.8227       357500       17.9019
30.8313       357600       17.9007
30.84       357700       17.8995
30.8486       357800       17.8983
30.8572       357900       17.8971
30.8658       358000       17.8959
30.8744       358100       17.8947
30.8831       358200       17.8936
30.8917       358300       17.8924
30.9003       358400       17.8912
30.9089       358500       17.89
30.9176       358600       17.8888
30.9262       358700       17.8877
30.9348       358800       17.8865
30.9434       358900       17.8853
30.952       359000       17.8841
30.9607       359100       17.8829
30.9693       359200       17.8818
30.9779       359300       17.8806
30.9865       359400       17.8794
30.9951       359500       17.8782
31.0038       359600       17.8771
31.0124       359700       17.8759
31.021       359800       17.8747
31.0296       359900       17.8735
31.0383       360000       17.8724
31.0469       360100       17.8712
31.0555       360200       17.87
31.0641       360300       17.8688
31.0727       360400       17.8677
31.0814       360500       17.8665
31.09       360600       17.8653
31.0986       360700       17.8642
31.1072       360800       17.863
31.1159       360900       17.8618
31.1245       361000       17.8607
31.1331       361100       17.8595
31.1417       361200       17.8583
31.1503       361300       17.8571
31.159       361400       17.856
31.1676       361500       17.8548
31.1762       361600       17.8536
31.1848       361700       17.8525
31.1934       361800       17.8513
31.2021       361900       17.8502
31.2107       362000       17.849
31.2193       362100       17.8478
31.2279       362200       17.8467
31.2366       362300       17.8455
31.2452       362400       17.8443
31.2538       362500       17.8432
31.2624       362600       17.842
31.271       362700       17.8408
31.2797       362800       17.8397
31.2883       362900       17.8385
31.2969       363000       17.8374
31.3055       363100       17.8362
31.3142       363200       17.835
31.3228       363300       17.8339
31.3314       363400       17.8327
31.34       363500       17.8316
31.3486       363600       17.8304
31.3573       363700       17.8293
31.3659       363800       17.8281
31.3745       363900       17.8269
31.3831       364000       17.8258
31.3917       364100       17.8246
31.4004       364200       17.8235
31.409       364300       17.8223
31.4176       364400       17.8212
31.4262       364500       17.82
31.4349       364600       17.8189
31.4435       364700       17.8177
31.4521       364800       17.8166
31.4607       364900       17.8154
31.4693       365000       17.8143
31.478       365100       17.8131
31.4866       365200       17.812
31.4952       365300       17.8108
31.5038       365400       17.8097
31.5125       365500       17.8085
31.5211       365600       17.8074
31.5297       365700       17.8062
31.5383       365800       17.8051
31.5469       365900       17.8039
31.5556       366000       17.8028
31.5642       366100       17.8016
31.5728       366200       17.8005
31.5814       366300       17.7993
31.59       366400       17.7982
31.5987       366500       17.7971
31.6073       366600       17.7959
31.6159       366700       17.7948
31.6245       366800       17.7936
31.6332       366900       17.7925
31.6418       367000       17.7913
31.6504       367100       17.7902
31.659       367200       17.7891
31.6676       367300       17.7879
31.6763       367400       17.7868
31.6849       367500       17.7856
31.6935       367600       17.7845
31.7021       367700       17.7834
31.7108       367800       17.7822
31.7194       367900       17.7811
31.728       368000       17.7799
31.7366       368100       17.7788
31.7452       368200       17.7777
31.7539       368300       17.7765
31.7625       368400       17.7754
31.7711       368500       17.7743
31.7797       368600       17.7731
31.7883       368700       17.772
31.797       368800       17.7709
31.8056       368900       17.7697
31.8142       369000       17.7686
31.8228       369100       17.7675
31.8315       369200       17.7663
31.8401       369300       17.7652
31.8487       369400       17.7641
31.8573       369500       17.7629
31.8659       369600       17.7618
31.8746       369700       17.7607
31.8832       369800       17.7595
31.8918       369900       17.7584
31.9004       370000       17.7573
31.9091       370100       17.7562
31.9177       370200       17.755
31.9263       370300       17.7539
31.9349       370400       17.7528
31.9435       370500       17.7517
31.9522       370600       17.7505
31.9608       370700       17.7494
31.9694       370800       17.7483
31.978       370900       17.7472
31.9866       371000       17.746
31.9953       371100       17.7449
32.0039       371200       17.7438
32.0125       371300       17.7427
32.0211       371400       17.7415
32.0298       371500       17.7404
32.0384       371600       17.7393
32.047       371700       17.7382
32.0556       371800       17.7371
32.0642       371900       17.7359
32.0729       372000       17.7348
32.0815       372100       17.7337
32.0901       372200       17.7326
32.0987       372300       17.7315
32.1074       372400       17.7303
32.116       372500       17.7292
32.1246       372600       17.7281
32.1332       372700       17.727
32.1418       372800       17.7259
32.1505       372900       17.7248
32.1591       373000       17.7236
32.1677       373100       17.7225
32.1763       373200       17.7214
32.1849       373300       17.7203
32.1936       373400       17.7192
32.2022       373500       17.7181
32.2108       373600       17.717
32.2194       373700       17.7158
32.2281       373800       17.7147
32.2367       373900       17.7136
32.2453       374000       17.7125
32.2539       374100       17.7114
32.2625       374200       17.7103
32.2712       374300       17.7092
32.2798       374400       17.7081
32.2884       374500       17.707
32.297       374600       17.7058
32.3057       374700       17.7047
32.3143       374800       17.7036
32.3229       374900       17.7025
32.3315       375000       17.7014
32.3401       375100       17.7003
32.3488       375200       17.6992
32.3574       375300       17.6981
32.366       375400       17.697
32.3746       375500       17.6959
32.3832       375600       17.6948
32.3919       375700       17.6937
32.4005       375800       17.6926
32.4091       375900       17.6915
32.4177       376000       17.6904
32.4264       376100       17.6893
32.435       376200       17.6882
32.4436       376300       17.6871
32.4522       376400       17.686
32.4608       376500       17.6849
32.4695       376600       17.6838
32.4781       376700       17.6827
32.4867       376800       17.6816
32.4953       376900       17.6805
32.504       377000       17.6794
32.5126       377100       17.6783
32.5212       377200       17.6772
32.5298       377300       17.6761
32.5384       377400       17.675
32.5471       377500       17.6739
32.5557       377600       17.6728
32.5643       377700       17.6717
32.5729       377800       17.6706
32.5815       377900       17.6695
32.5902       378000       17.6684
32.5988       378100       17.6673
32.6074       378200       17.6662
32.616       378300       17.6651
32.6247       378400       17.664
32.6333       378500       17.6629
32.6419       378600       17.6619
32.6505       378700       17.6608
32.6591       378800       17.6597
32.6678       378900       17.6586
32.6764       379000       17.6575
32.685       379100       17.6564
32.6936       379200       17.6553
32.7023       379300       17.6542
32.7109       379400       17.6531
32.7195       379500       17.652
32.7281       379600       17.651
32.7367       379700       17.6499
32.7454       379800       17.6488
32.754       379900       17.6477
32.7626       380000       17.6466
32.7712       380100       17.6455
32.7798       380200       17.6444
32.7885       380300       17.6434
32.7971       380400       17.6423
32.8057       380500       17.6412
32.8143       380600       17.6401
32.823       380700       17.639
32.8316       380800       17.6379
32.8402       380900       17.6369
32.8488       381000       17.6358
32.8574       381100       17.6347
32.8661       381200       17.6336
32.8747       381300       17.6325
32.8833       381400       17.6314
32.8919       381500       17.6304
32.9006       381600       17.6293
32.9092       381700       17.6282
32.9178       381800       17.6271
32.9264       381900       17.6261
32.935       382000       17.625
32.9437       382100       17.6239
32.9523       382200       17.6228
32.9609       382300       17.6217
32.9695       382400       17.6207
32.9781       382500       17.6196
32.9868       382600       17.6185
32.9954       382700       17.6174
33.004       382800       17.6164
33.0126       382900       17.6153
33.0213       383000       17.6142
33.0299       383100       17.6131
33.0385       383200       17.6121
33.0471       383300       17.611
33.0557       383400       17.6099
33.0644       383500       17.6089
33.073       383600       17.6078
33.0816       383700       17.6067
33.0902       383800       17.6056
33.0989       383900       17.6046
33.1075       384000       17.6035
33.1161       384100       17.6024
33.1247       384200       17.6014
33.1333       384300       17.6003
33.142       384400       17.5992
33.1506       384500       17.5982
33.1592       384600       17.5971
33.1678       384700       17.596
33.1764       384800       17.595
33.1851       384900       17.5939
33.1937       385000       17.5928
33.2023       385100       17.5918
33.2109       385200       17.5907
33.2196       385300       17.5896
33.2282       385400       17.5886
33.2368       385500       17.5875
33.2454       385600       17.5864
33.254       385700       17.5854
33.2627       385800       17.5843
33.2713       385900       17.5833
33.2799       386000       17.5822
33.2885       386100       17.5811
33.2972       386200       17.5801
33.3058       386300       17.579
33.3144       386400       17.578
33.323       386500       17.5769
33.3316       386600       17.5758
33.3403       386700       17.5748
33.3489       386800       17.5737
33.3575       386900       17.5727
33.3661       387000       17.5716
33.3747       387100       17.5705
33.3834       387200       17.5695
33.392       387300       17.5684
33.4006       387400       17.5674
33.4092       387500       17.5663
33.4179       387600       17.5653
33.4265       387700       17.5642
33.4351       387800       17.5632
33.4437       387900       17.5621
33.4523       388000       17.561
33.461       388100       17.56
33.4696       388200       17.5589
33.4782       388300       17.5579
33.4868       388400       17.5568
33.4955       388500       17.5558
33.5041       388600       17.5547
33.5127       388700       17.5537
33.5213       388800       17.5526
33.5299       388900       17.5516
33.5386       389000       17.5505
33.5472       389100       17.5495
33.5558       389200       17.5484
33.5644       389300       17.5474
33.573       389400       17.5463
33.5817       389500       17.5453
33.5903       389600       17.5442
33.5989       389700       17.5432
33.6075       389800       17.5421
33.6162       389900       17.5411
33.6248       390000       17.54
33.6334       390100       17.539
33.642       390200       17.538
33.6506       390300       17.5369
33.6593       390400       17.5359
33.6679       390500       17.5348
33.6765       390600       17.5338
33.6851       390700       17.5327
33.6938       390800       17.5317
33.7024       390900       17.5307
33.711       391000       17.5296
33.7196       391100       17.5286
33.7282       391200       17.5275
33.7369       391300       17.5265
33.7455       391400       17.5254
33.7541       391500       17.5244
33.7627       391600       17.5234
33.7713       391700       17.5223
33.78       391800       17.5213
33.7886       391900       17.5202
33.7972       392000       17.5192
33.8058       392100       17.5182
33.8145       392200       17.5171
33.8231       392300       17.5161
33.8317       392400       17.5151
33.8403       392500       17.514
33.8489       392600       17.513
33.8576       392700       17.512
33.8662       392800       17.5109
33.8748       392900       17.5099
33.8834       393000       17.5088
33.8921       393100       17.5078
33.9007       393200       17.5068
33.9093       393300       17.5057
33.9179       393400       17.5047
33.9265       393500       17.5037
33.9352       393600       17.5026
33.9438       393700       17.5016
33.9524       393800       17.5006
33.961       393900       17.4996
33.9696       394000       17.4985
33.9783       394100       17.4975
33.9869       394200       17.4965
33.9955       394300       17.4954
34.0041       394400       17.4944
34.0128       394500       17.4934
34.0214       394600       17.4923
34.03       394700       17.4913
34.0386       394800       17.4903
34.0472       394900       17.4893
34.0559       395000       17.4882
34.0645       395100       17.4872
34.0731       395200       17.4862
34.0817       395300       17.4852
34.0904       395400       17.4841
34.099       395500       17.4831
34.1076       395600       17.4821
34.1162       395700       17.4811
34.1248       395800       17.48
34.1335       395900       17.479
34.1421       396000       17.478
34.1507       396100       17.477
34.1593       396200       17.4759
34.1679       396300       17.4749
34.1766       396400       17.4739
34.1852       396500       17.4729
34.1938       396600       17.4719
34.2024       396700       17.4708
34.2111       396800       17.4698
34.2197       396900       17.4688
34.2283       397000       17.4678
34.2369       397100       17.4668
34.2455       397200       17.4657
34.2542       397300       17.4647
34.2628       397400       17.4637
34.2714       397500       17.4627
34.28       397600       17.4617
34.2887       397700       17.4607
34.2973       397800       17.4596
34.3059       397900       17.4586
34.3145       398000       17.4576
34.3231       398100       17.4566
34.3318       398200       17.4556
34.3404       398300       17.4546
34.349       398400       17.4535
34.3576       398500       17.4525
34.3662       398600       17.4515
34.3749       398700       17.4505
34.3835       398800       17.4495
34.3921       398900       17.4485
34.4007       399000       17.4475
34.4094       399100       17.4465
34.418       399200       17.4454
34.4266       399300       17.4444
34.4352       399400       17.4434
34.4438       399500       17.4424
34.4525       399600       17.4414
34.4611       399700       17.4404
34.4697       399800       17.4394
34.4783       399900       17.4384
34.487       400000       17.4374
