; The collision integrals Q_{i,j}^{11} are exponential fit function obtained from 
; Transport properties of high-temperature Jupiter atmosphere components, D. Bruno, C. Catalfamo, M. Capitelli, G. Colonna, O. De Pascale et al., Phys. Plasmas 17, 112315 (2010), doi: 10.1063/1.3495980, Published by the American Institute of Physics
; 
; 
; To obtain these collision integrals, the original data (transport cross section Q^l_{i,j} or elastic collision differential cross section) are obtained from:
;
; 1) Atomic and Plasma-material Interaction data for fusion, vol 9, international atomic energy agency, Vienna 2001, section: Collision integrals of high temperature hydrogen species
; 2) C. Gorse and M. Capitelli, At. Plasma-Mater. Interact. Data Fusion 9, 75 2001.
; 
; 1 atomic unit of square distance = 2.80e-17 cm^2
; 1eV = 11604K

2.80e-17


;        E             T             Q11
;       (eV)         (K)         (a.u.)

0.0862174       1000       53.4931
0.0948391       1100       52.2103
0.103461       1200       51.0543
0.112083       1300       50.003
0.120704       1400       49.0395
0.129326       1500       48.1507
0.137948       1600       47.326
0.14657       1700       46.557
0.155191       1800       45.8367
0.163813       1900       45.1593
0.172435       2000       44.52
0.181056       2100       43.9147
0.189678       2200       43.34
0.1983       2300       42.7929
0.206922       2400       42.2709
0.215543       2500       41.7716
0.224165       2600       41.2933
0.232787       2700       40.834
0.241409       2800       40.3925
0.25003       2900       39.9672
0.258652       3000       39.5571
0.267274       3100       39.1611
0.275896       3200       38.7782
0.284517       3300       38.4076
0.293139       3400       38.0485
0.301761       3500       37.7002
0.310383       3600       37.3621
0.319004       3700       37.0336
0.327626       3800       36.7142
0.336248       3900       36.4034
0.34487       4000       36.1007
0.353491       4100       35.8058
0.362113       4200       35.5184
0.370735       4300       35.2379
0.379356       4400       34.9642
0.387978       4500       34.6969
0.3966       4600       34.4358
0.405222       4700       34.1806
0.413843       4800       33.931
0.422465       4900       33.6869
0.431087       5000       33.448
0.439709       5100       33.2142
0.44833       5200       32.9852
0.456952       5300       32.7609
0.465574       5400       32.5411
0.474196       5500       32.3257
0.482817       5600       32.1145
0.491439       5700       31.9074
0.500061       5800       31.7043
0.508683       5900       31.5049
0.517304       6000       31.3093
0.525926       6100       31.1173
0.534548       6200       30.9287
0.543169       6300       30.7435
0.551791       6400       30.5617
0.560413       6500       30.383
0.569035       6600       30.2074
0.577656       6700       30.0349
0.586278       6800       29.8653
0.5949       6900       29.6985
0.603522       7000       29.5346
0.612143       7100       29.3733
0.620765       7200       29.2147
0.629387       7300       29.0587
0.638009       7400       28.9051
0.64663       7500       28.7541
0.655252       7600       28.6054
0.663874       7700       28.459
0.672496       7800       28.3149
0.681117       7900       28.173
0.689739       8000       28.0333
0.698361       8100       27.8957
0.706983       8200       27.7602
0.715604       8300       27.6266
0.724226       8400       27.4951
0.732848       8500       27.3655
0.741469       8600       27.2377
0.750091       8700       27.1118
0.758713       8800       26.9877
0.767335       8900       26.8653
0.775956       9000       26.7447
0.784578       9100       26.6258
0.7932       9200       26.5085
0.801822       9300       26.3928
0.810443       9400       26.2787
0.819065       9500       26.1661
0.827687       9600       26.0551
0.836309       9700       25.9455
0.84493       9800       25.8374
0.853552       9900       25.7307
0.862174       10000       25.6254
0.870796       10100       25.5214
0.879417       10200       25.4188
0.888039       10300       25.3175
0.896661       10400       25.2175
0.905282       10500       25.1187
0.913904       10600       25.0212
0.922526       10700       24.9249
0.931148       10800       24.8298
0.939769       10900       24.7358
0.948391       11000       24.643
0.957013       11100       24.5512
0.965635       11200       24.4606
0.974256       11300       24.3711
0.982878       11400       24.2826
0.9915       11500       24.1951
1.00012       11600       24.1087
1.00874       11700       24.0233
1.01737       11800       23.9388
1.02599       11900       23.8553
1.03461       12000       23.7728
1.04323       12100       23.6911
1.05185       12200       23.6104
1.06047       12300       23.5306
1.0691       12400       23.4517
1.07772       12500       23.3736
1.08634       12600       23.2963
1.09496       12700       23.22
1.10358       12800       23.1444
1.1122       12900       23.0696
1.12083       13000       22.9956
1.12945       13100       22.9224
1.13807       13200       22.85
1.14669       13300       22.7783
1.15531       13400       22.7073
1.16393       13500       22.6371
1.17256       13600       22.5676
1.18118       13700       22.4988
1.1898       13800       22.4306
1.19842       13900       22.3632
1.20704       14000       22.2964
1.21567       14100       22.2303
1.22429       14200       22.1648
1.23291       14300       22.1
1.24153       14400       22.0358
1.25015       14500       21.9722
1.25877       14600       21.9092
1.2674       14700       21.8468
1.27602       14800       21.785
1.28464       14900       21.7238
1.29326       15000       21.6631
1.30188       15100       21.603
1.3105       15200       21.5435
1.31913       15300       21.4845
1.32775       15400       21.426
1.33637       15500       21.3681
1.34499       15600       21.3107
1.35361       15700       21.2538
1.36223       15800       21.1974
1.37086       15900       21.1415
1.37948       16000       21.0861
1.3881       16100       21.0311
1.39672       16200       20.9767
1.40534       16300       20.9227
1.41397       16400       20.8692
1.42259       16500       20.8161
1.43121       16600       20.7635
1.43983       16700       20.7113
1.44845       16800       20.6595
1.45707       16900       20.6082
1.4657       17000       20.5573
1.47432       17100       20.5069
1.48294       17200       20.4568
1.49156       17300       20.4071
1.50018       17400       20.3579
1.5088       17500       20.309
1.51743       17600       20.2606
1.52605       17700       20.2125
1.53467       17800       20.1648
1.54329       17900       20.1174
1.55191       18000       20.0705
1.56053       18100       20.0239
1.56916       18200       19.9776
1.57778       18300       19.9318
1.5864       18400       19.8862
1.59502       18500       19.841
1.60364       18600       19.7962
1.61227       18700       19.7517
1.62089       18800       19.7075
1.62951       18900       19.6637
1.63813       19000       19.6201
1.64675       19100       19.5769
1.65537       19200       19.534
1.664       19300       19.4915
1.67262       19400       19.4492
1.68124       19500       19.4072
1.68986       19600       19.3656
1.69848       19700       19.3242
1.7071       19800       19.2831
1.71573       19900       19.2424
1.72435       20000       19.2019
1.73297       20100       19.1617
1.74159       20200       19.1217
1.75021       20300       19.0821
1.75883       20400       19.0427
1.76746       20500       19.0036
1.77608       20600       18.9647
1.7847       20700       18.9261
1.79332       20800       18.8878
1.80194       20900       18.8497
1.81056       21000       18.8119
1.81919       21100       18.7744
1.82781       21200       18.7371
1.83643       21300       18.7
1.84505       21400       18.6632
1.85367       21500       18.6266
1.8623       21600       18.5902
1.87092       21700       18.5541
1.87954       21800       18.5182
1.88816       21900       18.4826
1.89678       22000       18.4472
1.9054       22100       18.412
1.91403       22200       18.377
1.92265       22300       18.3422
1.93127       22400       18.3077
1.93989       22500       18.2733
1.94851       22600       18.2392
1.95713       22700       18.2053
1.96576       22800       18.1716
1.97438       22900       18.1381
1.983       23000       18.1048
1.99162       23100       18.0718
2.00024       23200       18.0389
2.00886       23300       18.0062
2.01749       23400       17.9737
2.02611       23500       17.9414
2.03473       23600       17.9093
2.04335       23700       17.8773
2.05197       23800       17.8456
2.0606       23900       17.8141
2.06922       24000       17.7827
2.07784       24100       17.7515
2.08646       24200       17.7205
2.09508       24300       17.6897
2.1037       24400       17.659
2.11233       24500       17.6285
2.12095       24600       17.5982
2.12957       24700       17.5681
2.13819       24800       17.5381
2.14681       24900       17.5083
2.15543       25000       17.4787
2.16406       25100       17.4492
2.17268       25200       17.4199
2.1813       25300       17.3908
2.18992       25400       17.3618
2.19854       25500       17.333
2.20716       25600       17.3043
2.21579       25700       17.2758
2.22441       25800       17.2474
2.23303       25900       17.2192
2.24165       26000       17.1911
2.25027       26100       17.1632
2.2589       26200       17.1355
2.26752       26300       17.1079
2.27614       26400       17.0804
2.28476       26500       17.0531
2.29338       26600       17.0259
2.302       26700       16.9988
2.31063       26800       16.9719
2.31925       26900       16.9452
2.32787       27000       16.9185
2.33649       27100       16.892
2.34511       27200       16.8657
2.35373       27300       16.8395
2.36236       27400       16.8134
2.37098       27500       16.7874
2.3796       27600       16.7616
2.38822       27700       16.7359
2.39684       27800       16.7103
2.40546       27900       16.6848
2.41409       28000       16.6595
2.42271       28100       16.6343
2.43133       28200       16.6093
2.43995       28300       16.5843
2.44857       28400       16.5595
2.4572       28500       16.5348
2.46582       28600       16.5102
2.47444       28700       16.4857
2.48306       28800       16.4613
2.49168       28900       16.4371
2.5003       29000       16.413
2.50893       29100       16.389
2.51755       29200       16.3651
2.52617       29300       16.3413
2.53479       29400       16.3176
2.54341       29500       16.2941
2.55203       29600       16.2706
2.56066       29700       16.2473
2.56928       29800       16.224
2.5779       29900       16.2009
2.58652       30000       16.1779
2.59514       30100       16.155
2.60376       30200       16.1322
2.61239       30300       16.1094
2.62101       30400       16.0868
2.62963       30500       16.0643
2.63825       30600       16.0419
2.64687       30700       16.0196
2.6555       30800       15.9974
2.66412       30900       15.9753
2.67274       31000       15.9533
2.68136       31100       15.9314
2.68998       31200       15.9096
2.6986       31300       15.8879
2.70723       31400       15.8662
2.71585       31500       15.8447
2.72447       31600       15.8233
2.73309       31700       15.8019
2.74171       31800       15.7807
2.75033       31900       15.7595
2.75896       32000       15.7384
2.76758       32100       15.7175
2.7762       32200       15.6966
2.78482       32300       15.6758
2.79344       32400       15.6551
2.80206       32500       15.6344
2.81069       32600       15.6139
2.81931       32700       15.5934
2.82793       32800       15.5731
2.83655       32900       15.5528
2.84517       33000       15.5326
2.8538       33100       15.5125
2.86242       33200       15.4924
2.87104       33300       15.4725
2.87966       33400       15.4526
2.88828       33500       15.4328
2.8969       33600       15.4131
2.90553       33700       15.3935
2.91415       33800       15.3739
2.92277       33900       15.3545
2.93139       34000       15.3351
2.94001       34100       15.3158
2.94863       34200       15.2965
2.95726       34300       15.2774
2.96588       34400       15.2583
2.9745       34500       15.2393
2.98312       34600       15.2203
2.99174       34700       15.2015
3.00036       34800       15.1827
3.00899       34900       15.164
3.01761       35000       15.1453
3.02623       35100       15.1267
3.03485       35200       15.1083
3.04347       35300       15.0898
3.0521       35400       15.0715
3.06072       35500       15.0532
3.06934       35600       15.035
3.07796       35700       15.0168
3.08658       35800       14.9988
3.0952       35900       14.9807
3.10383       36000       14.9628
3.11245       36100       14.9449
3.12107       36200       14.9271
3.12969       36300       14.9094
3.13831       36400       14.8917
3.14693       36500       14.8741
3.15556       36600       14.8566
3.16418       36700       14.8391
3.1728       36800       14.8217
3.18142       36900       14.8043
3.19004       37000       14.7871
3.19866       37100       14.7698
3.20729       37200       14.7527
3.21591       37300       14.7356
3.22453       37400       14.7185
3.23315       37500       14.7016
3.24177       37600       14.6847
3.2504       37700       14.6678
3.25902       37800       14.651
3.26764       37900       14.6343
3.27626       38000       14.6176
3.28488       38100       14.601
3.2935       38200       14.5845
3.30213       38300       14.568
3.31075       38400       14.5515
3.31937       38500       14.5352
3.32799       38600       14.5188
3.33661       38700       14.5026
3.34523       38800       14.4864
3.35386       38900       14.4702
3.36248       39000       14.4541
3.3711       39100       14.4381
3.37972       39200       14.4221
3.38834       39300       14.4062
3.39696       39400       14.3903
3.40559       39500       14.3745
3.41421       39600       14.3587
3.42283       39700       14.343
3.43145       39800       14.3274
3.44007       39900       14.3118
3.4487       40000       14.2962
3.45732       40100       14.2807
3.46594       40200       14.2653
3.47456       40300       14.2499
3.48318       40400       14.2345
3.4918       40500       14.2192
3.50043       40600       14.204
3.50905       40700       14.1888
3.51767       40800       14.1737
3.52629       40900       14.1586
3.53491       41000       14.1435
3.54353       41100       14.1285
3.55216       41200       14.1136
3.56078       41300       14.0987
3.5694       41400       14.0838
3.57802       41500       14.069
3.58664       41600       14.0543
3.59526       41700       14.0396
3.60389       41800       14.0249
3.61251       41900       14.0103
3.62113       42000       13.9958
3.62975       42100       13.9813
3.63837       42200       13.9668
3.647       42300       13.9524
3.65562       42400       13.938
3.66424       42500       13.9237
3.67286       42600       13.9094
3.68148       42700       13.8951
3.6901       42800       13.8809
3.69873       42900       13.8668
3.70735       43000       13.8527
3.71597       43100       13.8386
3.72459       43200       13.8246
3.73321       43300       13.8106
3.74183       43400       13.7967
3.75046       43500       13.7828
3.75908       43600       13.769
3.7677       43700       13.7552
3.77632       43800       13.7414
3.78494       43900       13.7277
3.79356       44000       13.714
3.80219       44100       13.7004
3.81081       44200       13.6868
3.81943       44300       13.6732
3.82805       44400       13.6597
3.83667       44500       13.6463
3.8453       44600       13.6328
3.85392       44700       13.6194
3.86254       44800       13.6061
3.87116       44900       13.5928
3.87978       45000       13.5795
3.8884       45100       13.5663
3.89703       45200       13.5531
3.90565       45300       13.5399
3.91427       45400       13.5268
3.92289       45500       13.5138
3.93151       45600       13.5007
3.94013       45700       13.4877
3.94876       45800       13.4748
3.95738       45900       13.4618
3.966       46000       13.449
3.97462       46100       13.4361
3.98324       46200       13.4233
3.99186       46300       13.4105
4.00049       46400       13.3978
4.00911       46500       13.3851
4.01773       46600       13.3724
4.02635       46700       13.3598
4.03497       46800       13.3472
4.0436       46900       13.3347
4.05222       47000       13.3222
4.06084       47100       13.3097
4.06946       47200       13.2972
4.07808       47300       13.2848
4.0867       47400       13.2724
4.09533       47500       13.2601
4.10395       47600       13.2478
4.11257       47700       13.2355
4.12119       47800       13.2233
4.12981       47900       13.2111
4.13843       48000       13.1989
4.14706       48100       13.1868
4.15568       48200       13.1747
4.1643       48300       13.1626
4.17292       48400       13.1506
4.18154       48500       13.1386
4.19016       48600       13.1266
4.19879       48700       13.1147
4.20741       48800       13.1028
4.21603       48900       13.0909
4.22465       49000       13.0791
4.23327       49100       13.0672
4.2419       49200       13.0555
4.25052       49300       13.0437
4.25914       49400       13.032
4.26776       49500       13.0203
4.27638       49600       13.0087
4.285       49700       12.9971
4.29363       49800       12.9855
4.30225       49900       12.9739
4.31087       50000       12.9624
4.31949       50100       12.9509
4.32811       50200       12.9395
4.33673       50300       12.928
4.34536       50400       12.9166
4.35398       50500       12.9053
4.3626       50600       12.8939
4.37122       50700       12.8826
4.37984       50800       12.8713
4.38846       50900       12.8601
4.39709       51000       12.8489
4.40571       51100       12.8377
4.41433       51200       12.8265
4.42295       51300       12.8154
4.43157       51400       12.8043
4.4402       51500       12.7932
4.44882       51600       12.7821
4.45744       51700       12.7711
4.46606       51800       12.7601
4.47468       51900       12.7492
4.4833       52000       12.7382
4.49193       52100       12.7273
4.50055       52200       12.7164
4.50917       52300       12.7056
4.51779       52400       12.6948
4.52641       52500       12.684
4.53503       52600       12.6732
4.54366       52700       12.6625
4.55228       52800       12.6518
4.5609       52900       12.6411
4.56952       53000       12.6304
4.57814       53100       12.6198
4.58676       53200       12.6092
4.59539       53300       12.5986
4.60401       53400       12.588
4.61263       53500       12.5775
4.62125       53600       12.567
4.62987       53700       12.5565
4.6385       53800       12.5461
4.64712       53900       12.5357
4.65574       54000       12.5253
4.66436       54100       12.5149
4.67298       54200       12.5045
4.6816       54300       12.4942
4.69023       54400       12.4839
4.69885       54500       12.4736
4.70747       54600       12.4634
4.71609       54700       12.4532
4.72471       54800       12.443
4.73333       54900       12.4328
4.74196       55000       12.4227
4.75058       55100       12.4125
4.7592       55200       12.4024
4.76782       55300       12.3924
4.77644       55400       12.3823
4.78506       55500       12.3723
4.79369       55600       12.3623
4.80231       55700       12.3523
4.81093       55800       12.3424
4.81955       55900       12.3324
4.82817       56000       12.3225
4.8368       56100       12.3126
4.84542       56200       12.3028
4.85404       56300       12.2929
4.86266       56400       12.2831
4.87128       56500       12.2733
4.8799       56600       12.2636
4.88853       56700       12.2538
4.89715       56800       12.2441
4.90577       56900       12.2344
4.91439       57000       12.2247
4.92301       57100       12.2151
4.93163       57200       12.2055
4.94026       57300       12.1958
4.94888       57400       12.1863
4.9575       57500       12.1767
4.96612       57600       12.1672
4.97474       57700       12.1576
4.98336       57800       12.1481
4.99199       57900       12.1387
5.00061       58000       12.1292
5.00923       58100       12.1198
5.01785       58200       12.1104
5.02647       58300       12.101
5.03509       58400       12.0916
5.04372       58500       12.0823
5.05234       58600       12.0729
5.06096       58700       12.0636
5.06958       58800       12.0543
5.0782       58900       12.0451
5.08683       59000       12.0358
5.09545       59100       12.0266
5.10407       59200       12.0174
5.11269       59300       12.0082
5.12131       59400       11.9991
5.12993       59500       11.9899
5.13856       59600       11.9808
5.14718       59700       11.9717
5.1558       59800       11.9626
5.16442       59900       11.9536
5.17304       60000       11.9445
5.18166       60100       11.9355
5.19029       60200       11.9265
5.19891       60300       11.9175
5.20753       60400       11.9086
5.21615       60500       11.8996
5.22477       60600       11.8907
5.23339       60700       11.8818
5.24202       60800       11.8729
5.25064       60900       11.8641
5.25926       61000       11.8552
5.26788       61100       11.8464
5.2765       61200       11.8376
5.28513       61300       11.8288
5.29375       61400       11.82
5.30237       61500       11.8113
5.31099       61600       11.8026
5.31961       61700       11.7939
5.32823       61800       11.7852
5.33686       61900       11.7765
5.34548       62000       11.7678
5.3541       62100       11.7592
5.36272       62200       11.7506
5.37134       62300       11.742
5.37996       62400       11.7334
5.38859       62500       11.7249
5.39721       62600       11.7163
5.40583       62700       11.7078
5.41445       62800       11.6993
5.42307       62900       11.6908
5.43169       63000       11.6823
5.44032       63100       11.6739
5.44894       63200       11.6654
5.45756       63300       11.657
5.46618       63400       11.6486
5.4748       63500       11.6402
5.48343       63600       11.6318
5.49205       63700       11.6235
5.50067       63800       11.6152
5.50929       63900       11.6069
5.51791       64000       11.5986
5.52653       64100       11.5903
5.53516       64200       11.582
5.54378       64300       11.5738
5.5524       64400       11.5655
5.56102       64500       11.5573
5.56964       64600       11.5491
5.57826       64700       11.5409
5.58689       64800       11.5328
5.59551       64900       11.5246
5.60413       65000       11.5165
5.61275       65100       11.5084
5.62137       65200       11.5003
5.62999       65300       11.4922
5.63862       65400       11.4842
5.64724       65500       11.4761
5.65586       65600       11.4681
5.66448       65700       11.4601
5.6731       65800       11.4521
5.68173       65900       11.4441
5.69035       66000       11.4361
5.69897       66100       11.4282
5.70759       66200       11.4202
5.71621       66300       11.4123
5.72483       66400       11.4044
5.73346       66500       11.3965
5.74208       66600       11.3887
5.7507       66700       11.3808
5.75932       66800       11.373
5.76794       66900       11.3651
5.77656       67000       11.3573
5.78519       67100       11.3495
5.79381       67200       11.3418
5.80243       67300       11.334
5.81105       67400       11.3262
5.81967       67500       11.3185
5.82829       67600       11.3108
5.83692       67700       11.3031
5.84554       67800       11.2954
5.85416       67900       11.2877
5.86278       68000       11.2801
5.8714       68100       11.2724
5.88003       68200       11.2648
5.88865       68300       11.2572
5.89727       68400       11.2496
5.90589       68500       11.242
5.91451       68600       11.2344
5.92313       68700       11.2269
5.93176       68800       11.2193
5.94038       68900       11.2118
5.949       69000       11.2043
5.95762       69100       11.1968
5.96624       69200       11.1893
5.97486       69300       11.1819
5.98349       69400       11.1744
5.99211       69500       11.167
6.00073       69600       11.1595
6.00935       69700       11.1521
6.01797       69800       11.1447
6.02659       69900       11.1374
6.03522       70000       11.13
6.04384       70100       11.1226
6.05246       70200       11.1153
6.06108       70300       11.108
6.0697       70400       11.1006
6.07833       70500       11.0933
6.08695       70600       11.0861
6.09557       70700       11.0788
6.10419       70800       11.0715
6.11281       70900       11.0643
6.12143       71000       11.057
6.13006       71100       11.0498
6.13868       71200       11.0426
6.1473       71300       11.0354
6.15592       71400       11.0282
6.16454       71500       11.0211
6.17316       71600       11.0139
6.18179       71700       11.0068
6.19041       71800       10.9997
6.19903       71900       10.9925
6.20765       72000       10.9854
6.21627       72100       10.9784
6.22489       72200       10.9713
6.23352       72300       10.9642
6.24214       72400       10.9572
6.25076       72500       10.9501
6.25938       72600       10.9431
6.268       72700       10.9361
6.27663       72800       10.9291
6.28525       72900       10.9221
6.29387       73000       10.9151
6.30249       73100       10.9082
6.31111       73200       10.9012
6.31973       73300       10.8943
6.32836       73400       10.8874
6.33698       73500       10.8805
6.3456       73600       10.8736
6.35422       73700       10.8667
6.36284       73800       10.8598
6.37146       73900       10.853
6.38009       74000       10.8461
6.38871       74100       10.8393
6.39733       74200       10.8325
6.40595       74300       10.8256
6.41457       74400       10.8188
6.42319       74500       10.8121
6.43182       74600       10.8053
6.44044       74700       10.7985
6.44906       74800       10.7918
6.45768       74900       10.785
6.4663       75000       10.7783
6.47493       75100       10.7716
6.48355       75200       10.7649
6.49217       75300       10.7582
6.50079       75400       10.7515
6.50941       75500       10.7448
6.51803       75600       10.7382
6.52666       75700       10.7315
6.53528       75800       10.7249
6.5439       75900       10.7183
6.55252       76000       10.7117
6.56114       76100       10.7051
6.56976       76200       10.6985
6.57839       76300       10.6919
6.58701       76400       10.6853
6.59563       76500       10.6788
6.60425       76600       10.6722
6.61287       76700       10.6657
6.62149       76800       10.6592
6.63012       76900       10.6527
6.63874       77000       10.6462
6.64736       77100       10.6397
6.65598       77200       10.6332
6.6646       77300       10.6267
6.67323       77400       10.6203
6.68185       77500       10.6139
6.69047       77600       10.6074
6.69909       77700       10.601
6.70771       77800       10.5946
6.71633       77900       10.5882
6.72496       78000       10.5818
6.73358       78100       10.5754
6.7422       78200       10.5691
6.75082       78300       10.5627
6.75944       78400       10.5564
6.76806       78500       10.55
6.77669       78600       10.5437
6.78531       78700       10.5374
6.79393       78800       10.5311
6.80255       78900       10.5248
6.81117       79000       10.5185
6.81979       79100       10.5122
6.82842       79200       10.506
6.83704       79300       10.4997
6.84566       79400       10.4935
6.85428       79500       10.4872
6.8629       79600       10.481
6.87153       79700       10.4748
6.88015       79800       10.4686
6.88877       79900       10.4624
6.89739       80000       10.4563
6.90601       80100       10.4501
6.91463       80200       10.4439
6.92326       80300       10.4378
6.93188       80400       10.4316
6.9405       80500       10.4255
6.94912       80600       10.4194
6.95774       80700       10.4133
6.96636       80800       10.4072
6.97499       80900       10.4011
6.98361       81000       10.395
6.99223       81100       10.3889
7.00085       81200       10.3829
7.00947       81300       10.3768
7.01809       81400       10.3708
7.02672       81500       10.3648
7.03534       81600       10.3588
7.04396       81700       10.3527
7.05258       81800       10.3467
7.0612       81900       10.3408
7.06983       82000       10.3348
7.07845       82100       10.3288
7.08707       82200       10.3228
7.09569       82300       10.3169
7.10431       82400       10.3109
7.11293       82500       10.305
7.12156       82600       10.2991
7.13018       82700       10.2932
7.1388       82800       10.2873
7.14742       82900       10.2814
7.15604       83000       10.2755
7.16466       83100       10.2696
7.17329       83200       10.2637
7.18191       83300       10.2579
7.19053       83400       10.252
7.19915       83500       10.2462
7.20777       83600       10.2404
7.21639       83700       10.2345
7.22502       83800       10.2287
7.23364       83900       10.2229
7.24226       84000       10.2171
7.25088       84100       10.2113
7.2595       84200       10.2056
7.26813       84300       10.1998
7.27675       84400       10.194
7.28537       84500       10.1883
7.29399       84600       10.1826
7.30261       84700       10.1768
7.31123       84800       10.1711
7.31986       84900       10.1654
7.32848       85000       10.1597
7.3371       85100       10.154
7.34572       85200       10.1483
7.35434       85300       10.1426
7.36296       85400       10.137
7.37159       85500       10.1313
7.38021       85600       10.1256
7.38883       85700       10.12
7.39745       85800       10.1144
7.40607       85900       10.1087
7.41469       86000       10.1031
7.42332       86100       10.0975
7.43194       86200       10.0919
7.44056       86300       10.0863
7.44918       86400       10.0807
7.4578       86500       10.0752
7.46643       86600       10.0696
7.47505       86700       10.064
7.48367       86800       10.0585
7.49229       86900       10.053
7.50091       87000       10.0474
7.50953       87100       10.0419
7.51816       87200       10.0364
7.52678       87300       10.0309
7.5354       87400       10.0254
7.54402       87500       10.0199
7.55264       87600       10.0144
7.56126       87700       10.0089
7.56989       87800       10.0035
7.57851       87900       9.998
7.58713       88000       9.99255
7.59575       88100       9.98711
7.60437       88200       9.98168
7.61299       88300       9.97625
7.62162       88400       9.97084
7.63024       88500       9.96543
7.63886       88600       9.96003
7.64748       88700       9.95463
7.6561       88800       9.94925
7.66473       88900       9.94387
7.67335       89000       9.9385
7.68197       89100       9.93314
7.69059       89200       9.92779
7.69921       89300       9.92244
7.70783       89400       9.9171
7.71646       89500       9.91177
7.72508       89600       9.90645
7.7337       89700       9.90114
7.74232       89800       9.89583
7.75094       89900       9.89053
7.75956       90000       9.88524
7.76819       90100       9.87996
7.77681       90200       9.87468
7.78543       90300       9.86942
7.79405       90400       9.86416
7.80267       90500       9.8589
7.81129       90600       9.85366
7.81992       90700       9.84842
7.82854       90800       9.84319
7.83716       90900       9.83797
7.84578       91000       9.83276
7.8544       91100       9.82755
7.86303       91200       9.82235
7.87165       91300       9.81716
7.88027       91400       9.81197
7.88889       91500       9.8068
7.89751       91600       9.80163
7.90613       91700       9.79647
7.91476       91800       9.79131
7.92338       91900       9.78616
7.932       92000       9.78102
7.94062       92100       9.77589
7.94924       92200       9.77077
7.95786       92300       9.76565
7.96649       92400       9.76054
7.97511       92500       9.75543
7.98373       92600       9.75034
7.99235       92700       9.74525
8.00097       92800       9.74017
8.00959       92900       9.73509
8.01822       93000       9.73002
8.02684       93100       9.72496
8.03546       93200       9.71991
8.04408       93300       9.71487
8.0527       93400       9.70983
8.06133       93500       9.7048
8.06995       93600       9.69977
8.07857       93700       9.69475
8.08719       93800       9.68974
8.09581       93900       9.68474
8.10443       94000       9.67974
8.11306       94100       9.67475
8.12168       94200       9.66977
8.1303       94300       9.66479
8.13892       94400       9.65983
8.14754       94500       9.65486
8.15616       94600       9.64991
8.16479       94700       9.64496
8.17341       94800       9.64002
8.18203       94900       9.63509
8.19065       95000       9.63016
8.19927       95100       9.62524
8.20789       95200       9.62032
8.21652       95300       9.61542
8.22514       95400       9.61052
8.23376       95500       9.60562
8.24238       95600       9.60074
8.251       95700       9.59586
8.25963       95800       9.59098
8.26825       95900       9.58612
8.27687       96000       9.58126
8.28549       96100       9.5764
8.29411       96200       9.57156
8.30273       96300       9.56672
8.31136       96400       9.56188
8.31998       96500       9.55706
8.3286       96600       9.55224
8.33722       96700       9.54742
8.34584       96800       9.54261
8.35446       96900       9.53781
8.36309       97000       9.53302
8.37171       97100       9.52823
8.38033       97200       9.52345
8.38895       97300       9.51868
8.39757       97400       9.51391
8.40619       97500       9.50915
8.41482       97600       9.50439
8.42344       97700       9.49964
8.43206       97800       9.4949
8.44068       97900       9.49016
8.4493       98000       9.48543
8.45792       98100       9.48071
8.46655       98200       9.47599
8.47517       98300       9.47128
8.48379       98400       9.46658
8.49241       98500       9.46188
8.50103       98600       9.45718
8.50966       98700       9.4525
8.51828       98800       9.44782
8.5269       98900       9.44315
8.53552       99000       9.43848
8.54414       99100       9.43382
8.55276       99200       9.42916
8.56139       99300       9.42451
8.57001       99400       9.41987
8.57863       99500       9.41523
8.58725       99600       9.4106
8.59587       99700       9.40598
8.60449       99800       9.40136
8.61312       99900       9.39675
8.62174       100000       9.39214
8.63036       100100       9.38754
8.63898       100200       9.38295
8.6476       100300       9.37836
8.65622       100400       9.37378
8.66485       100500       9.36921
8.67347       100600       9.36464
8.68209       100700       9.36007
8.69071       100800       9.35551
8.69933       100900       9.35096
8.70796       101000       9.34642
8.71658       101100       9.34188
8.7252       101200       9.33734
8.73382       101300       9.33281
8.74244       101400       9.32829
8.75106       101500       9.32377
8.75969       101600       9.31926
8.76831       101700       9.31476
8.77693       101800       9.31026
8.78555       101900       9.30577
8.79417       102000       9.30128
8.80279       102100       9.2968
8.81142       102200       9.29232
8.82004       102300       9.28785
8.82866       102400       9.28339
8.83728       102500       9.27893
8.8459       102600       9.27447
8.85452       102700       9.27003
8.86315       102800       9.26559
8.87177       102900       9.26115
8.88039       103000       9.25672
8.88901       103100       9.25229
8.89763       103200       9.24788
8.90626       103300       9.24346
8.91488       103400       9.23905
8.9235       103500       9.23465
8.93212       103600       9.23026
8.94074       103700       9.22586
8.94936       103800       9.22148
8.95799       103900       9.2171
8.96661       104000       9.21272
8.97523       104100       9.20836
8.98385       104200       9.20399
8.99247       104300       9.19963
9.00109       104400       9.19528
9.00972       104500       9.19094
9.01834       104600       9.18659
9.02696       104700       9.18226
9.03558       104800       9.17793
9.0442       104900       9.1736
9.05282       105000       9.16928
9.06145       105100       9.16497
9.07007       105200       9.16066
9.07869       105300       9.15636
9.08731       105400       9.15206
9.09593       105500       9.14777
9.10456       105600       9.14348
9.11318       105700       9.1392
9.1218       105800       9.13492
9.13042       105900       9.13065
9.13904       106000       9.12638
9.14766       106100       9.12212
9.15629       106200       9.11787
9.16491       106300       9.11361
9.17353       106400       9.10937
9.18215       106500       9.10513
9.19077       106600       9.1009
9.19939       106700       9.09667
9.20802       106800       9.09244
9.21664       106900       9.08822
9.22526       107000       9.08401
9.23388       107100       9.0798
9.2425       107200       9.0756
9.25112       107300       9.0714
9.25975       107400       9.06721
9.26837       107500       9.06302
9.27699       107600       9.05883
9.28561       107700       9.05466
9.29423       107800       9.05048
9.30286       107900       9.04632
9.31148       108000       9.04215
9.3201       108100       9.038
9.32872       108200       9.03384
9.33734       108300       9.0297
9.34596       108400       9.02555
9.35459       108500       9.02142
9.36321       108600       9.01728
9.37183       108700       9.01316
9.38045       108800       9.00903
9.38907       108900       9.00492
9.39769       109000       9.0008
9.40632       109100       8.9967
9.41494       109200       8.99259
9.42356       109300       8.9885
9.43218       109400       8.9844
9.4408       109500       8.98032
9.44942       109600       8.97623
9.45805       109700       8.97216
9.46667       109800       8.96808
9.47529       109900       8.96401
9.48391       110000       8.95995
9.49253       110100       8.95589
9.50116       110200       8.95184
9.50978       110300       8.94779
9.5184       110400       8.94375
9.52702       110500       8.93971
9.53564       110600       8.93567
9.54426       110700       8.93164
9.55289       110800       8.92762
9.56151       110900       8.9236
9.57013       111000       8.91958
9.57875       111100       8.91557
9.58737       111200       8.91157
9.59599       111300       8.90757
9.60462       111400       8.90357
9.61324       111500       8.89958
9.62186       111600       8.89559
9.63048       111700       8.89161
9.6391       111800       8.88763
9.64772       111900       8.88366
9.65635       112000       8.87969
9.66497       112100       8.87573
9.67359       112200       8.87177
9.68221       112300       8.86781
9.69083       112400       8.86386
9.69946       112500       8.85992
9.70808       112600       8.85598
9.7167       112700       8.85204
9.72532       112800       8.84811
9.73394       112900       8.84418
9.74256       113000       8.84026
9.75119       113100       8.83634
9.75981       113200       8.83243
9.76843       113300       8.82852
9.77705       113400       8.82462
9.78567       113500       8.82072
9.79429       113600       8.81682
9.80292       113700       8.81293
9.81154       113800       8.80905
9.82016       113900       8.80517
9.82878       114000       8.80129
9.8374       114100       8.79742
9.84602       114200       8.79355
9.85465       114300       8.78969
9.86327       114400       8.78583
9.87189       114500       8.78197
9.88051       114600       8.77812
9.88913       114700       8.77428
9.89776       114800       8.77043
9.90638       114900       8.7666
9.915       115000       8.76276
9.92362       115100       8.75894
9.93224       115200       8.75511
9.94086       115300       8.75129
9.94949       115400       8.74748
9.95811       115500       8.74367
9.96673       115600       8.73986
9.97535       115700       8.73606
9.98397       115800       8.73226
9.99259       115900       8.72847
10.0012       116000       8.72468
10.0098       116100       8.72089
10.0185       116200       8.71711
10.0271       116300       8.71333
10.0357       116400       8.70956
10.0443       116500       8.70579
10.0529       116600       8.70203
10.0616       116700       8.69827
10.0702       116800       8.69452
10.0788       116900       8.69077
10.0874       117000       8.68702
10.0961       117100       8.68328
10.1047       117200       8.67954
10.1133       117300       8.6758
10.1219       117400       8.67207
10.1305       117500       8.66835
10.1392       117600       8.66463
10.1478       117700       8.66091
10.1564       117800       8.6572
10.165       117900       8.65349
10.1737       118000       8.64978
10.1823       118100       8.64608
10.1909       118200       8.64238
10.1995       118300       8.63869
10.2081       118400       8.635
10.2168       118500       8.63132
10.2254       118600       8.62764
10.234       118700       8.62396
10.2426       118800       8.62029
10.2512       118900       8.61662
10.2599       119000       8.61296
10.2685       119100       8.6093
10.2771       119200       8.60564
10.2857       119300       8.60199
10.2944       119400       8.59834
10.303       119500       8.5947
10.3116       119600       8.59106
10.3202       119700       8.58742
10.3288       119800       8.58379
10.3375       119900       8.58016
10.3461       120000       8.57653
10.3547       120100       8.57291
10.3633       120200       8.5693
10.372       120300       8.56569
10.3806       120400       8.56208
10.3892       120500       8.55847
10.3978       120600       8.55487
10.4064       120700       8.55128
10.4151       120800       8.54768
10.4237       120900       8.5441
10.4323       121000       8.54051
10.4409       121100       8.53693
10.4495       121200       8.53335
10.4582       121300       8.52978
10.4668       121400       8.52621
10.4754       121500       8.52265
10.484       121600       8.51908
10.4927       121700       8.51553
10.5013       121800       8.51197
10.5099       121900       8.50842
10.5185       122000       8.50488
10.5271       122100       8.50133
10.5358       122200       8.49779
10.5444       122300       8.49426
10.553       122400       8.49073
10.5616       122500       8.4872
10.5703       122600       8.48368
10.5789       122700       8.48016
10.5875       122800       8.47664
10.5961       122900       8.47313
10.6047       123000       8.46962
10.6134       123100       8.46612
10.622       123200       8.46262
10.6306       123300       8.45912
10.6392       123400       8.45563
10.6478       123500       8.45214
10.6565       123600       8.44865
10.6651       123700       8.44517
10.6737       123800       8.44169
10.6823       123900       8.43822
10.691       124000       8.43474
10.6996       124100       8.43128
10.7082       124200       8.42781
10.7168       124300       8.42435
10.7254       124400       8.4209
10.7341       124500       8.41744
10.7427       124600       8.41399
10.7513       124700       8.41055
10.7599       124800       8.40711
10.7686       124900       8.40367
10.7772       125000       8.40023
10.7858       125100       8.3968
10.7944       125200       8.39338
10.803       125300       8.38995
10.8117       125400       8.38653
10.8203       125500       8.38311
10.8289       125600       8.3797
10.8375       125700       8.37629
10.8461       125800       8.37289
10.8548       125900       8.36948
10.8634       126000       8.36608
10.872       126100       8.36269
10.8806       126200       8.3593
10.8893       126300       8.35591
10.8979       126400       8.35252
10.9065       126500       8.34914
10.9151       126600       8.34576
10.9237       126700       8.34239
10.9324       126800       8.33902
10.941       126900       8.33565
10.9496       127000       8.33229
10.9582       127100       8.32893
10.9669       127200       8.32557
10.9755       127300       8.32222
10.9841       127400       8.31887
10.9927       127500       8.31552
11.0013       127600       8.31218
11.01       127700       8.30884
11.0186       127800       8.3055
11.0272       127900       8.30217
11.0358       128000       8.29884
11.0444       128100       8.29552
11.0531       128200       8.29219
11.0617       128300       8.28887
11.0703       128400       8.28556
11.0789       128500       8.28225
11.0876       128600       8.27894
11.0962       128700       8.27563
11.1048       128800       8.27233
11.1134       128900       8.26903
11.122       129000       8.26574
11.1307       129100       8.26244
11.1393       129200       8.25916
11.1479       129300       8.25587
11.1565       129400       8.25259
11.1652       129500       8.24931
11.1738       129600       8.24603
11.1824       129700       8.24276
11.191       129800       8.23949
11.1996       129900       8.23623
11.2083       130000       8.23297
11.2169       130100       8.22971
11.2255       130200       8.22645
11.2341       130300       8.2232
11.2427       130400       8.21995
11.2514       130500       8.2167
11.26       130600       8.21346
11.2686       130700       8.21022
11.2772       130800       8.20699
11.2859       130900       8.20375
11.2945       131000       8.20053
11.3031       131100       8.1973
11.3117       131200       8.19408
11.3203       131300       8.19086
11.329       131400       8.18764
11.3376       131500       8.18443
11.3462       131600       8.18122
11.3548       131700       8.17801
11.3635       131800       8.17481
11.3721       131900       8.17161
11.3807       132000       8.16841
11.3893       132100       8.16522
11.3979       132200       8.16202
11.4066       132300       8.15884
11.4152       132400       8.15565
11.4238       132500       8.15247
11.4324       132600       8.14929
11.441       132700       8.14612
11.4497       132800       8.14295
11.4583       132900       8.13978
11.4669       133000       8.13661
11.4755       133100       8.13345
11.4842       133200       8.13029
11.4928       133300       8.12713
11.5014       133400       8.12398
11.51       133500       8.12083
11.5186       133600       8.11768
11.5273       133700       8.11454
11.5359       133800       8.1114
11.5445       133900       8.10826
11.5531       134000       8.10513
11.5618       134100       8.10199
11.5704       134200       8.09887
11.579       134300       8.09574
11.5876       134400       8.09262
11.5962       134500       8.0895
11.6049       134600       8.08638
11.6135       134700       8.08327
11.6221       134800       8.08016
11.6307       134900       8.07705
11.6393       135000       8.07395
11.648       135100       8.07085
11.6566       135200       8.06775
11.6652       135300       8.06465
11.6738       135400       8.06156
11.6825       135500       8.05847
11.6911       135600       8.05539
11.6997       135700       8.0523
11.7083       135800       8.04922
11.7169       135900       8.04615
11.7256       136000       8.04307
11.7342       136100       8.04
11.7428       136200       8.03693
11.7514       136300       8.03387
11.7601       136400       8.03081
11.7687       136500       8.02775
11.7773       136600       8.02469
11.7859       136700       8.02164
11.7945       136800       8.01859
11.8032       136900       8.01554
11.8118       137000       8.01249
11.8204       137100       8.00945
11.829       137200       8.00641
11.8376       137300       8.00338
11.8463       137400       8.00034
11.8549       137500       7.99731
11.8635       137600       7.99429
11.8721       137700       7.99126
11.8808       137800       7.98824
11.8894       137900       7.98522
11.898       138000       7.98221
11.9066       138100       7.97919
11.9152       138200       7.97618
11.9239       138300       7.97318
11.9325       138400       7.97017
11.9411       138500       7.96717
11.9497       138600       7.96417
11.9584       138700       7.96118
11.967       138800       7.95818
11.9756       138900       7.95519
11.9842       139000       7.95221
11.9928       139100       7.94922
12.0015       139200       7.94624
12.0101       139300       7.94326
12.0187       139400       7.94029
12.0273       139500       7.93731
12.0359       139600       7.93434
12.0446       139700       7.93138
12.0532       139800       7.92841
12.0618       139900       7.92545
12.0704       140000       7.92249
12.0791       140100       7.91953
12.0877       140200       7.91658
12.0963       140300       7.91363
12.1049       140400       7.91068
12.1135       140500       7.90774
12.1222       140600       7.90479
12.1308       140700       7.90185
12.1394       140800       7.89892
12.148       140900       7.89598
12.1567       141000       7.89305
12.1653       141100       7.89012
12.1739       141200       7.8872
12.1825       141300       7.88427
12.1911       141400       7.88135
12.1998       141500       7.87843
12.2084       141600       7.87552
12.217       141700       7.87261
12.2256       141800       7.8697
12.2342       141900       7.86679
12.2429       142000       7.86389
12.2515       142100       7.86098
12.2601       142200       7.85808
12.2687       142300       7.85519
12.2774       142400       7.85229
12.286       142500       7.8494
12.2946       142600       7.84651
12.3032       142700       7.84363
12.3118       142800       7.84075
12.3205       142900       7.83787
12.3291       143000       7.83499
12.3377       143100       7.83211
12.3463       143200       7.82924
12.355       143300       7.82637
12.3636       143400       7.8235
12.3722       143500       7.82064
12.3808       143600       7.81778
12.3894       143700       7.81492
12.3981       143800       7.81206
12.4067       143900       7.80921
12.4153       144000       7.80636
12.4239       144100       7.80351
12.4325       144200       7.80066
12.4412       144300       7.79782
12.4498       144400       7.79498
12.4584       144500       7.79214
12.467       144600       7.7893
12.4757       144700       7.78647
12.4843       144800       7.78364
12.4929       144900       7.78081
12.5015       145000       7.77798
12.5101       145100       7.77516
12.5188       145200       7.77234
12.5274       145300       7.76952
12.536       145400       7.76671
12.5446       145500       7.76389
12.5533       145600       7.76108
12.5619       145700       7.75828
12.5705       145800       7.75547
12.5791       145900       7.75267
12.5877       146000       7.74987
12.5964       146100       7.74707
12.605       146200       7.74427
12.6136       146300       7.74148
12.6222       146400       7.73869
12.6308       146500       7.7359
12.6395       146600       7.73312
12.6481       146700       7.73034
12.6567       146800       7.72756
12.6653       146900       7.72478
12.674       147000       7.722
12.6826       147100       7.71923
12.6912       147200       7.71646
12.6998       147300       7.71369
12.7084       147400       7.71093
12.7171       147500       7.70817
12.7257       147600       7.7054
12.7343       147700       7.70265
12.7429       147800       7.69989
12.7516       147900       7.69714
12.7602       148000       7.69439
12.7688       148100       7.69164
12.7774       148200       7.68889
12.786       148300       7.68615
12.7947       148400       7.68341
12.8033       148500       7.68067
12.8119       148600       7.67794
12.8205       148700       7.6752
12.8291       148800       7.67247
12.8378       148900       7.66974
12.8464       149000       7.66702
12.855       149100       7.66429
12.8636       149200       7.66157
12.8723       149300       7.65885
12.8809       149400       7.65614
12.8895       149500       7.65342
12.8981       149600       7.65071
12.9067       149700       7.648
12.9154       149800       7.64529
12.924       149900       7.64259
12.9326       150000       7.63989
12.9412       150100       7.63719
12.9499       150200       7.63449
12.9585       150300       7.63179
12.9671       150400       7.6291
12.9757       150500       7.62641
12.9843       150600       7.62372
12.993       150700       7.62104
13.0016       150800       7.61835
13.0102       150900       7.61567
13.0188       151000       7.61299
13.0274       151100       7.61032
13.0361       151200       7.60764
13.0447       151300       7.60497
13.0533       151400       7.6023
13.0619       151500       7.59963
13.0706       151600       7.59697
13.0792       151700       7.59431
13.0878       151800       7.59165
13.0964       151900       7.58899
13.105       152000       7.58633
13.1137       152100       7.58368
13.1223       152200       7.58103
13.1309       152300       7.57838
13.1395       152400       7.57573
13.1482       152500       7.57309
13.1568       152600       7.57045
13.1654       152700       7.56781
13.174       152800       7.56517
13.1826       152900       7.56253
13.1913       153000       7.5599
13.1999       153100       7.55727
13.2085       153200       7.55464
13.2171       153300       7.55202
13.2257       153400       7.54939
13.2344       153500       7.54677
13.243       153600       7.54415
13.2516       153700       7.54154
13.2602       153800       7.53892
13.2689       153900       7.53631
13.2775       154000       7.5337
13.2861       154100       7.53109
13.2947       154200       7.52848
13.3033       154300       7.52588
13.312       154400       7.52328
13.3206       154500       7.52068
13.3292       154600       7.51808
13.3378       154700       7.51549
13.3465       154800       7.5129
13.3551       154900       7.5103
13.3637       155000       7.50772
13.3723       155100       7.50513
13.3809       155200       7.50255
13.3896       155300       7.49997
13.3982       155400       7.49739
13.4068       155500       7.49481
13.4154       155600       7.49223
13.424       155700       7.48966
13.4327       155800       7.48709
13.4413       155900       7.48452
13.4499       156000       7.48195
13.4585       156100       7.47939
13.4672       156200       7.47683
13.4758       156300       7.47427
13.4844       156400       7.47171
13.493       156500       7.46916
13.5016       156600       7.4666
13.5103       156700       7.46405
13.5189       156800       7.4615
13.5275       156900       7.45895
13.5361       157000       7.45641
13.5448       157100       7.45387
13.5534       157200       7.45133
13.562       157300       7.44879
13.5706       157400       7.44625
13.5792       157500       7.44372
13.5879       157600       7.44119
13.5965       157700       7.43866
13.6051       157800       7.43613
13.6137       157900       7.4336
13.6223       158000       7.43108
13.631       158100       7.42856
13.6396       158200       7.42604
13.6482       158300       7.42352
13.6568       158400       7.421
13.6655       158500       7.41849
13.6741       158600       7.41598
13.6827       158700       7.41347
13.6913       158800       7.41096
13.6999       158900       7.40846
13.7086       159000       7.40596
13.7172       159100       7.40346
13.7258       159200       7.40096
13.7344       159300       7.39846
13.7431       159400       7.39597
13.7517       159500       7.39347
13.7603       159600       7.39098
13.7689       159700       7.38849
13.7775       159800       7.38601
13.7862       159900       7.38352
13.7948       160000       7.38104
13.8034       160100       7.37856
13.812       160200       7.37608
13.8206       160300       7.37361
13.8293       160400       7.37113
13.8379       160500       7.36866
13.8465       160600       7.36619
13.8551       160700       7.36372
13.8638       160800       7.36126
13.8724       160900       7.35879
13.881       161000       7.35633
13.8896       161100       7.35387
13.8982       161200       7.35141
13.9069       161300       7.34896
13.9155       161400       7.3465
13.9241       161500       7.34405
13.9327       161600       7.3416
13.9414       161700       7.33915
13.95       161800       7.33671
13.9586       161900       7.33426
13.9672       162000       7.33182
13.9758       162100       7.32938
13.9845       162200       7.32694
13.9931       162300       7.32451
14.0017       162400       7.32207
14.0103       162500       7.31964
14.0189       162600       7.31721
14.0276       162700       7.31478
14.0362       162800       7.31236
14.0448       162900       7.30993
14.0534       163000       7.30751
14.0621       163100       7.30509
14.0707       163200       7.30267
14.0793       163300       7.30026
14.0879       163400       7.29784
14.0965       163500       7.29543
14.1052       163600       7.29302
14.1138       163700       7.29061
14.1224       163800       7.2882
14.131       163900       7.2858
14.1397       164000       7.28339
14.1483       164100       7.28099
14.1569       164200       7.27859
14.1655       164300       7.2762
14.1741       164400       7.2738
14.1828       164500       7.27141
14.1914       164600       7.26902
14.2       164700       7.26663
14.2086       164800       7.26424
14.2172       164900       7.26186
14.2259       165000       7.25947
14.2345       165100       7.25709
14.2431       165200       7.25471
14.2517       165300       7.25233
14.2604       165400       7.24996
14.269       165500       7.24758
14.2776       165600       7.24521
14.2862       165700       7.24284
14.2948       165800       7.24047
14.3035       165900       7.2381
14.3121       166000       7.23574
14.3207       166100       7.23338
14.3293       166200       7.23102
14.338       166300       7.22866
14.3466       166400       7.2263
14.3552       166500       7.22394
14.3638       166600       7.22159
14.3724       166700       7.21924
14.3811       166800       7.21689
14.3897       166900       7.21454
14.3983       167000       7.21219
14.4069       167100       7.20985
14.4155       167200       7.20751
14.4242       167300       7.20517
14.4328       167400       7.20283
14.4414       167500       7.20049
14.45       167600       7.19816
14.4587       167700       7.19582
14.4673       167800       7.19349
14.4759       167900       7.19116
14.4845       168000       7.18883
14.4931       168100       7.18651
14.5018       168200       7.18418
14.5104       168300       7.18186
14.519       168400       7.17954
14.5276       168500       7.17722
14.5363       168600       7.17491
14.5449       168700       7.17259
14.5535       168800       7.17028
14.5621       168900       7.16797
14.5707       169000       7.16566
14.5794       169100       7.16335
14.588       169200       7.16104
14.5966       169300       7.15874
14.6052       169400       7.15644
14.6138       169500       7.15414
14.6225       169600       7.15184
14.6311       169700       7.14954
14.6397       169800       7.14724
14.6483       169900       7.14495
14.657       170000       7.14266
14.6656       170100       7.14037
14.6742       170200       7.13808
14.6828       170300       7.13579
14.6914       170400       7.13351
14.7001       170500       7.13123
14.7087       170600       7.12895
14.7173       170700       7.12667
14.7259       170800       7.12439
14.7346       170900       7.12211
14.7432       171000       7.11984
14.7518       171100       7.11757
14.7604       171200       7.1153
14.769       171300       7.11303
14.7777       171400       7.11076
14.7863       171500       7.10849
14.7949       171600       7.10623
14.8035       171700       7.10397
14.8121       171800       7.10171
14.8208       171900       7.09945
14.8294       172000       7.09719
14.838       172100       7.09494
14.8466       172200       7.09269
14.8553       172300       7.09043
14.8639       172400       7.08818
14.8725       172500       7.08594
14.8811       172600       7.08369
14.8897       172700       7.08145
14.8984       172800       7.0792
14.907       172900       7.07696
14.9156       173000       7.07472
14.9242       173100       7.07248
14.9329       173200       7.07025
14.9415       173300       7.06801
14.9501       173400       7.06578
14.9587       173500       7.06355
14.9673       173600       7.06132
14.976       173700       7.05909
14.9846       173800       7.05687
14.9932       173900       7.05464
15.0018       174000       7.05242
15.0104       174100       7.0502
15.0191       174200       7.04798
15.0277       174300       7.04576
15.0363       174400       7.04355
15.0449       174500       7.04133
15.0536       174600       7.03912
15.0622       174700       7.03691
15.0708       174800       7.0347
15.0794       174900       7.03249
15.088       175000       7.03029
15.0967       175100       7.02808
15.1053       175200       7.02588
15.1139       175300       7.02368
15.1225       175400       7.02148
15.1312       175500       7.01928
15.1398       175600       7.01709
15.1484       175700       7.01489
15.157       175800       7.0127
15.1656       175900       7.01051
15.1743       176000       7.00832
15.1829       176100       7.00613
15.1915       176200       7.00394
15.2001       176300       7.00176
15.2087       176400       6.99958
15.2174       176500       6.9974
15.226       176600       6.99522
15.2346       176700       6.99304
15.2432       176800       6.99086
15.2519       176900       6.98869
15.2605       177000       6.98651
15.2691       177100       6.98434
15.2777       177200       6.98217
15.2863       177300       6.98
15.295       177400       6.97784
15.3036       177500       6.97567
15.3122       177600       6.97351
15.3208       177700       6.97135
15.3295       177800       6.96919
15.3381       177900       6.96703
15.3467       178000       6.96487
15.3553       178100       6.96272
15.3639       178200       6.96056
15.3726       178300       6.95841
15.3812       178400       6.95626
15.3898       178500       6.95411
15.3984       178600       6.95196
15.407       178700       6.94982
15.4157       178800       6.94767
15.4243       178900       6.94553
15.4329       179000       6.94339
15.4415       179100       6.94125
15.4502       179200       6.93911
15.4588       179300       6.93698
15.4674       179400       6.93484
15.476       179500       6.93271
15.4846       179600       6.93058
15.4933       179700       6.92845
15.5019       179800       6.92632
15.5105       179900       6.92419
15.5191       180000       6.92206
15.5278       180100       6.91994
15.5364       180200       6.91782
15.545       180300       6.9157
15.5536       180400       6.91358
15.5622       180500       6.91146
15.5709       180600       6.90934
15.5795       180700       6.90723
15.5881       180800       6.90512
15.5967       180900       6.90301
15.6053       181000       6.9009
15.614       181100       6.89879
15.6226       181200       6.89668
15.6312       181300       6.89457
15.6398       181400       6.89247
15.6485       181500       6.89037
15.6571       181600       6.88827
15.6657       181700       6.88617
15.6743       181800       6.88407
15.6829       181900       6.88197
15.6916       182000       6.87988
15.7002       182100       6.87779
15.7088       182200       6.87569
15.7174       182300       6.8736
15.7261       182400       6.87152
15.7347       182500       6.86943
15.7433       182600       6.86734
15.7519       182700       6.86526
15.7605       182800       6.86318
15.7692       182900       6.8611
15.7778       183000       6.85902
15.7864       183100       6.85694
15.795       183200       6.85486
15.8036       183300       6.85279
15.8123       183400       6.85071
15.8209       183500       6.84864
15.8295       183600       6.84657
15.8381       183700       6.8445
15.8468       183800       6.84243
15.8554       183900       6.84037
15.864       184000       6.8383
15.8726       184100       6.83624
15.8812       184200       6.83418
15.8899       184300       6.83212
15.8985       184400       6.83006
15.9071       184500       6.828
15.9157       184600       6.82594
15.9244       184700       6.82389
15.933       184800       6.82184
15.9416       184900       6.81978
15.9502       185000       6.81773
15.9588       185100       6.81569
15.9675       185200       6.81364
15.9761       185300       6.81159
15.9847       185400       6.80955
15.9933       185500       6.80751
16.0019       185600       6.80547
16.0106       185700       6.80343
16.0192       185800       6.80139
16.0278       185900       6.79935
16.0364       186000       6.79731
16.0451       186100       6.79528
16.0537       186200       6.79325
16.0623       186300       6.79122
16.0709       186400       6.78919
16.0795       186500       6.78716
16.0882       186600       6.78513
16.0968       186700       6.78311
16.1054       186800       6.78108
16.114       186900       6.77906
16.1227       187000       6.77704
16.1313       187100       6.77502
16.1399       187200       6.773
16.1485       187300       6.77098
16.1571       187400       6.76897
16.1658       187500       6.76695
16.1744       187600       6.76494
16.183       187700       6.76293
16.1916       187800       6.76092
16.2002       187900       6.75891
16.2089       188000       6.7569
16.2175       188100       6.7549
16.2261       188200       6.75289
16.2347       188300       6.75089
16.2434       188400       6.74889
16.252       188500       6.74689
16.2606       188600       6.74489
16.2692       188700       6.74289
16.2778       188800       6.7409
16.2865       188900       6.7389
16.2951       189000       6.73691
16.3037       189100       6.73492
16.3123       189200       6.73293
16.321       189300       6.73094
16.3296       189400       6.72895
16.3382       189500       6.72697
16.3468       189600       6.72498
16.3554       189700       6.723
16.3641       189800       6.72102
16.3727       189900       6.71904
16.3813       190000       6.71706
16.3899       190100       6.71508
16.3985       190200       6.7131
16.4072       190300       6.71113
16.4158       190400       6.70915
16.4244       190500       6.70718
16.433       190600       6.70521
16.4417       190700       6.70324
16.4503       190800       6.70127
16.4589       190900       6.69931
16.4675       191000       6.69734
16.4761       191100       6.69538
16.4848       191200       6.69341
16.4934       191300       6.69145
16.502       191400       6.68949
16.5106       191500       6.68753
16.5193       191600       6.68558
16.5279       191700       6.68362
16.5365       191800       6.68166
16.5451       191900       6.67971
16.5537       192000       6.67776
16.5624       192100       6.67581
16.571       192200       6.67386
16.5796       192300       6.67191
16.5882       192400       6.66996
16.5968       192500       6.66802
16.6055       192600       6.66608
16.6141       192700       6.66413
16.6227       192800       6.66219
16.6313       192900       6.66025
16.64       193000       6.65831
16.6486       193100       6.65637
16.6572       193200       6.65444
16.6658       193300       6.6525
16.6744       193400       6.65057
16.6831       193500       6.64864
16.6917       193600       6.64671
16.7003       193700       6.64478
16.7089       193800       6.64285
16.7175       193900       6.64092
16.7262       194000       6.639
16.7348       194100       6.63707
16.7434       194200       6.63515
16.752       194300       6.63323
16.7607       194400       6.63131
16.7693       194500       6.62939
16.7779       194600       6.62747
16.7865       194700       6.62556
16.7951       194800       6.62364
16.8038       194900       6.62173
16.8124       195000       6.61981
16.821       195100       6.6179
16.8296       195200       6.61599
16.8383       195300       6.61408
16.8469       195400       6.61218
16.8555       195500       6.61027
16.8641       195600       6.60837
16.8727       195700       6.60646
16.8814       195800       6.60456
16.89       195900       6.60266
16.8986       196000       6.60076
16.9072       196100       6.59886
16.9158       196200       6.59696
16.9245       196300       6.59507
16.9331       196400       6.59317
16.9417       196500       6.59128
16.9503       196600       6.58939
16.959       196700       6.5875
16.9676       196800       6.58561
16.9762       196900       6.58372
16.9848       197000       6.58183
16.9934       197100       6.57995
17.0021       197200       6.57806
17.0107       197300       6.57618
17.0193       197400       6.5743
17.0279       197500       6.57242
17.0366       197600       6.57054
17.0452       197700       6.56866
17.0538       197800       6.56678
17.0624       197900       6.56491
17.071       198000       6.56303
17.0797       198100       6.56116
17.0883       198200       6.55929
17.0969       198300       6.55742
17.1055       198400       6.55555
17.1141       198500       6.55368
17.1228       198600       6.55181
17.1314       198700       6.54995
17.14       198800       6.54808
17.1486       198900       6.54622
17.1573       199000       6.54436
17.1659       199100       6.5425
17.1745       199200       6.54064
17.1831       199300       6.53878
17.1917       199400       6.53692
17.2004       199500       6.53507
17.209       199600       6.53321
17.2176       199700       6.53136
17.2262       199800       6.52951
17.2349       199900       6.52766
17.2435       200000       6.52581
17.2521       200100       6.52396
17.2607       200200       6.52211
17.2693       200300       6.52026
17.278       200400       6.51842
17.2866       200500       6.51658
17.2952       200600       6.51473
17.3038       200700       6.51289
17.3124       200800       6.51105
17.3211       200900       6.50921
17.3297       201000       6.50738
17.3383       201100       6.50554
17.3469       201200       6.5037
17.3556       201300       6.50187
17.3642       201400       6.50004
17.3728       201500       6.49821
17.3814       201600       6.49638
17.39       201700       6.49455
17.3987       201800       6.49272
17.4073       201900       6.49089
17.4159       202000       6.48907
17.4245       202100       6.48724
17.4332       202200       6.48542
17.4418       202300       6.4836
17.4504       202400       6.48178
17.459       202500       6.47996
17.4676       202600       6.47814
17.4763       202700       6.47632
17.4849       202800       6.4745
17.4935       202900       6.47269
17.5021       203000       6.47088
17.5107       203100       6.46906
17.5194       203200       6.46725
17.528       203300       6.46544
17.5366       203400       6.46363
17.5452       203500       6.46183
17.5539       203600       6.46002
17.5625       203700       6.45821
17.5711       203800       6.45641
17.5797       203900       6.45461
17.5883       204000       6.4528
17.597       204100       6.451
17.6056       204200       6.4492
17.6142       204300       6.44741
17.6228       204400       6.44561
17.6315       204500       6.44381
17.6401       204600       6.44202
17.6487       204700       6.44022
17.6573       204800       6.43843
17.6659       204900       6.43664
17.6746       205000       6.43485
17.6832       205100       6.43306
17.6918       205200       6.43127
17.7004       205300       6.42948
17.709       205400       6.4277
17.7177       205500       6.42591
17.7263       205600       6.42413
17.7349       205700       6.42235
17.7435       205800       6.42057
17.7522       205900       6.41879
17.7608       206000       6.41701
17.7694       206100       6.41523
17.778       206200       6.41345
17.7866       206300       6.41168
17.7953       206400       6.4099
17.8039       206500       6.40813
17.8125       206600       6.40636
17.8211       206700       6.40459
17.8298       206800       6.40282
17.8384       206900       6.40105
17.847       207000       6.39928
17.8556       207100       6.39752
17.8642       207200       6.39575
17.8729       207300       6.39399
17.8815       207400       6.39222
17.8901       207500       6.39046
17.8987       207600       6.3887
17.9073       207700       6.38694
17.916       207800       6.38518
17.9246       207900       6.38342
17.9332       208000       6.38167
17.9418       208100       6.37991
17.9505       208200       6.37816
17.9591       208300       6.37641
17.9677       208400       6.37465
17.9763       208500       6.3729
17.9849       208600       6.37115
17.9936       208700       6.3694
18.0022       208800       6.36766
18.0108       208900       6.36591
18.0194       209000       6.36417
18.0281       209100       6.36242
18.0367       209200       6.36068
18.0453       209300       6.35894
18.0539       209400       6.3572
18.0625       209500       6.35546
18.0712       209600       6.35372
18.0798       209700       6.35198
18.0884       209800       6.35024
18.097       209900       6.34851
18.1056       210000       6.34677
18.1143       210100       6.34504
18.1229       210200       6.34331
18.1315       210300       6.34158
18.1401       210400       6.33985
18.1488       210500       6.33812
18.1574       210600       6.33639
18.166       210700       6.33466
18.1746       210800       6.33294
18.1832       210900       6.33121
18.1919       211000       6.32949
18.2005       211100       6.32777
18.2091       211200       6.32605
18.2177       211300       6.32433
18.2264       211400       6.32261
18.235       211500       6.32089
18.2436       211600       6.31917
18.2522       211700       6.31746
18.2608       211800       6.31574
18.2695       211900       6.31403
18.2781       212000       6.31232
18.2867       212100       6.3106
18.2953       212200       6.30889
18.3039       212300       6.30718
18.3126       212400       6.30548
18.3212       212500       6.30377
18.3298       212600       6.30206
18.3384       212700       6.30036
18.3471       212800       6.29865
18.3557       212900       6.29695
18.3643       213000       6.29525
18.3729       213100       6.29355
18.3815       213200       6.29185
18.3902       213300       6.29015
18.3988       213400       6.28845
18.4074       213500       6.28675
18.416       213600       6.28506
18.4247       213700       6.28336
18.4333       213800       6.28167
18.4419       213900       6.27998
18.4505       214000       6.27828
18.4591       214100       6.27659
18.4678       214200       6.2749
18.4764       214300       6.27322
18.485       214400       6.27153
18.4936       214500       6.26984
18.5022       214600       6.26816
18.5109       214700       6.26647
18.5195       214800       6.26479
18.5281       214900       6.26311
18.5367       215000       6.26143
18.5454       215100       6.25974
18.554       215200       6.25807
18.5626       215300       6.25639
18.5712       215400       6.25471
18.5798       215500       6.25303
18.5885       215600       6.25136
18.5971       215700       6.24969
18.6057       215800       6.24801
18.6143       215900       6.24634
18.623       216000       6.24467
18.6316       216100       6.243
18.6402       216200       6.24133
18.6488       216300       6.23966
18.6574       216400       6.238
18.6661       216500       6.23633
18.6747       216600       6.23467
18.6833       216700       6.233
18.6919       216800       6.23134
18.7005       216900       6.22968
18.7092       217000       6.22802
18.7178       217100       6.22636
18.7264       217200       6.2247
18.735       217300       6.22304
18.7437       217400       6.22138
18.7523       217500       6.21973
18.7609       217600       6.21807
18.7695       217700       6.21642
18.7781       217800       6.21477
18.7868       217900       6.21311
18.7954       218000       6.21146
18.804       218100       6.20981
18.8126       218200       6.20817
18.8213       218300       6.20652
18.8299       218400       6.20487
18.8385       218500       6.20323
18.8471       218600       6.20158
18.8557       218700       6.19994
18.8644       218800       6.19829
18.873       218900       6.19665
18.8816       219000       6.19501
18.8902       219100       6.19337
18.8988       219200       6.19173
18.9075       219300       6.1901
18.9161       219400       6.18846
18.9247       219500       6.18682
18.9333       219600       6.18519
18.942       219700       6.18355
18.9506       219800       6.18192
18.9592       219900       6.18029
18.9678       220000       6.17866
18.9764       220100       6.17703
18.9851       220200       6.1754
18.9937       220300       6.17377
19.0023       220400       6.17215
19.0109       220500       6.17052
19.0196       220600       6.16889
19.0282       220700       6.16727
19.0368       220800       6.16565
19.0454       220900       6.16402
19.054       221000       6.1624
19.0627       221100       6.16078
19.0713       221200       6.15916
19.0799       221300       6.15755
19.0885       221400       6.15593
19.0971       221500       6.15431
19.1058       221600       6.1527
19.1144       221700       6.15108
19.123       221800       6.14947
19.1316       221900       6.14786
19.1403       222000       6.14625
19.1489       222100       6.14463
19.1575       222200       6.14303
19.1661       222300       6.14142
19.1747       222400       6.13981
19.1834       222500       6.1382
19.192       222600       6.1366
19.2006       222700       6.13499
19.2092       222800       6.13339
19.2179       222900       6.13178
19.2265       223000       6.13018
19.2351       223100       6.12858
19.2437       223200       6.12698
19.2523       223300       6.12538
19.261       223400       6.12378
19.2696       223500       6.12219
19.2782       223600       6.12059
19.2868       223700       6.119
19.2954       223800       6.1174
19.3041       223900       6.11581
19.3127       224000       6.11422
19.3213       224100       6.11262
19.3299       224200       6.11103
19.3386       224300       6.10944
19.3472       224400       6.10785
19.3558       224500       6.10627
19.3644       224600       6.10468
19.373       224700       6.10309
19.3817       224800       6.10151
19.3903       224900       6.09992
19.3989       225000       6.09834
19.4075       225100       6.09676
19.4162       225200       6.09518
19.4248       225300       6.0936
19.4334       225400       6.09202
19.442       225500       6.09044
19.4506       225600       6.08886
19.4593       225700       6.08729
19.4679       225800       6.08571
19.4765       225900       6.08413
19.4851       226000       6.08256
19.4937       226100       6.08099
19.5024       226200       6.07942
19.511       226300       6.07784
19.5196       226400       6.07627
19.5282       226500       6.07471
19.5369       226600       6.07314
19.5455       226700       6.07157
19.5541       226800       6.07
19.5627       226900       6.06844
19.5713       227000       6.06687
19.58       227100       6.06531
19.5886       227200       6.06375
19.5972       227300       6.06218
19.6058       227400       6.06062
19.6145       227500       6.05906
19.6231       227600       6.0575
19.6317       227700       6.05594
19.6403       227800       6.05439
19.6489       227900       6.05283
19.6576       228000       6.05127
19.6662       228100       6.04972
19.6748       228200       6.04817
19.6834       228300       6.04661
19.692       228400       6.04506
19.7007       228500       6.04351
19.7093       228600       6.04196
19.7179       228700       6.04041
19.7265       228800       6.03886
19.7352       228900       6.03731
19.7438       229000       6.03577
19.7524       229100       6.03422
19.761       229200       6.03268
19.7696       229300       6.03113
19.7783       229400       6.02959
19.7869       229500       6.02805
19.7955       229600       6.02651
19.8041       229700       6.02497
19.8128       229800       6.02343
19.8214       229900       6.02189
19.83       230000       6.02035
19.8386       230100       6.01881
19.8472       230200       6.01728
19.8559       230300       6.01574
19.8645       230400       6.01421
19.8731       230500       6.01267
19.8817       230600       6.01114
19.8903       230700       6.00961
19.899       230800       6.00808
19.9076       230900       6.00655
19.9162       231000       6.00502
19.9248       231100       6.00349
19.9335       231200       6.00196
19.9421       231300       6.00044
19.9507       231400       5.99891
19.9593       231500       5.99739
19.9679       231600       5.99586
19.9766       231700       5.99434
19.9852       231800       5.99282
19.9938       231900       5.9913
20.0024       232000       5.98978
20.0111       232100       5.98826
20.0197       232200       5.98674
20.0283       232300       5.98522
20.0369       232400       5.9837
20.0455       232500       5.98219
20.0542       232600       5.98067
20.0628       232700       5.97916
20.0714       232800       5.97765
20.08       232900       5.97613
20.0886       233000       5.97462
20.0973       233100       5.97311
20.1059       233200       5.9716
20.1145       233300       5.97009
20.1231       233400       5.96858
20.1318       233500       5.96708
20.1404       233600       5.96557
20.149       233700       5.96406
20.1576       233800       5.96256
20.1662       233900       5.96106
20.1749       234000       5.95955
20.1835       234100       5.95805
20.1921       234200       5.95655
20.2007       234300       5.95505
20.2094       234400       5.95355
20.218       234500       5.95205
20.2266       234600       5.95055
20.2352       234700       5.94905
20.2438       234800       5.94756
20.2525       234900       5.94606
20.2611       235000       5.94457
20.2697       235100       5.94307
20.2783       235200       5.94158
20.2869       235300       5.94009
20.2956       235400       5.9386
20.3042       235500       5.93711
20.3128       235600       5.93562
20.3214       235700       5.93413
20.3301       235800       5.93264
20.3387       235900       5.93115
20.3473       236000       5.92967
20.3559       236100       5.92818
20.3645       236200       5.9267
20.3732       236300       5.92521
20.3818       236400       5.92373
20.3904       236500       5.92225
20.399       236600       5.92077
20.4077       236700       5.91929
20.4163       236800       5.91781
20.4249       236900       5.91633
20.4335       237000       5.91485
20.4421       237100       5.91337
20.4508       237200       5.9119
20.4594       237300       5.91042
20.468       237400       5.90895
20.4766       237500       5.90747
20.4852       237600       5.906
20.4939       237700       5.90453
20.5025       237800       5.90305
20.5111       237900       5.90158
20.5197       238000       5.90011
20.5284       238100       5.89865
20.537       238200       5.89718
20.5456       238300       5.89571
20.5542       238400       5.89424
20.5628       238500       5.89278
20.5715       238600       5.89131
20.5801       238700       5.88985
20.5887       238800       5.88839
20.5973       238900       5.88692
20.606       239000       5.88546
20.6146       239100       5.884
20.6232       239200       5.88254
20.6318       239300       5.88108
20.6404       239400       5.87962
20.6491       239500       5.87816
20.6577       239600       5.87671
20.6663       239700       5.87525
20.6749       239800       5.8738
20.6835       239900       5.87234
20.6922       240000       5.87089
20.7008       240100       5.86944
20.7094       240200       5.86798
20.718       240300       5.86653
20.7267       240400       5.86508
20.7353       240500       5.86363
20.7439       240600       5.86218
20.7525       240700       5.86074
20.7611       240800       5.85929
20.7698       240900       5.85784
20.7784       241000       5.8564
20.787       241100       5.85495
20.7956       241200       5.85351
20.8043       241300       5.85206
20.8129       241400       5.85062
20.8215       241500       5.84918
20.8301       241600       5.84774
20.8387       241700       5.8463
20.8474       241800       5.84486
20.856       241900       5.84342
20.8646       242000       5.84198
20.8732       242100       5.84055
20.8818       242200       5.83911
20.8905       242300       5.83767
20.8991       242400       5.83624
20.9077       242500       5.83481
20.9163       242600       5.83337
20.925       242700       5.83194
20.9336       242800       5.83051
20.9422       242900       5.82908
20.9508       243000       5.82765
20.9594       243100       5.82622
20.9681       243200       5.82479
20.9767       243300       5.82336
20.9853       243400       5.82194
20.9939       243500       5.82051
21.0026       243600       5.81909
21.0112       243700       5.81766
21.0198       243800       5.81624
21.0284       243900       5.81481
21.037       244000       5.81339
21.0457       244100       5.81197
21.0543       244200       5.81055
21.0629       244300       5.80913
21.0715       244400       5.80771
21.0801       244500       5.80629
21.0888       244600       5.80488
21.0974       244700       5.80346
21.106       244800       5.80204
21.1146       244900       5.80063
21.1233       245000       5.79921
21.1319       245100       5.7978
21.1405       245200       5.79639
21.1491       245300       5.79497
21.1577       245400       5.79356
21.1664       245500       5.79215
21.175       245600       5.79074
21.1836       245700       5.78933
21.1922       245800       5.78792
21.2009       245900       5.78652
21.2095       246000       5.78511
21.2181       246100       5.7837
21.2267       246200       5.7823
21.2353       246300       5.78089
21.244       246400       5.77949
21.2526       246500       5.77809
21.2612       246600       5.77668
21.2698       246700       5.77528
21.2784       246800       5.77388
21.2871       246900       5.77248
21.2957       247000       5.77108
21.3043       247100       5.76968
21.3129       247200       5.76829
21.3216       247300       5.76689
21.3302       247400       5.76549
21.3388       247500       5.7641
21.3474       247600       5.7627
21.356       247700       5.76131
21.3647       247800       5.75991
21.3733       247900       5.75852
21.3819       248000       5.75713
21.3905       248100       5.75574
21.3992       248200       5.75435
21.4078       248300       5.75296
21.4164       248400       5.75157
21.425       248500       5.75018
21.4336       248600       5.74879
21.4423       248700       5.74741
21.4509       248800       5.74602
21.4595       248900       5.74464
21.4681       249000       5.74325
21.4767       249100       5.74187
21.4854       249200       5.74049
21.494       249300       5.7391
21.5026       249400       5.73772
21.5112       249500       5.73634
21.5199       249600       5.73496
21.5285       249700       5.73358
21.5371       249800       5.7322
21.5457       249900       5.73082
21.5543       250000       5.72945
21.563       250100       5.72807
21.5716       250200       5.7267
21.5802       250300       5.72532
21.5888       250400       5.72395
21.5975       250500       5.72257
21.6061       250600       5.7212
21.6147       250700       5.71983
21.6233       250800       5.71846
21.6319       250900       5.71709
21.6406       251000       5.71572
21.6492       251100       5.71435
21.6578       251200       5.71298
21.6664       251300       5.71161
21.675       251400       5.71024
21.6837       251500       5.70888
21.6923       251600       5.70751
21.7009       251700       5.70615
21.7095       251800       5.70478
21.7182       251900       5.70342
21.7268       252000       5.70206
21.7354       252100       5.70069
21.744       252200       5.69933
21.7526       252300       5.69797
21.7613       252400       5.69661
21.7699       252500       5.69525
21.7785       252600       5.6939
21.7871       252700       5.69254
21.7958       252800       5.69118
21.8044       252900       5.68982
21.813       253000       5.68847
21.8216       253100       5.68711
21.8302       253200       5.68576
21.8389       253300       5.68441
21.8475       253400       5.68305
21.8561       253500       5.6817
21.8647       253600       5.68035
21.8733       253700       5.679
21.882       253800       5.67765
21.8906       253900       5.6763
21.8992       254000       5.67495
21.9078       254100       5.6736
21.9165       254200       5.67226
21.9251       254300       5.67091
21.9337       254400       5.66957
21.9423       254500       5.66822
21.9509       254600       5.66688
21.9596       254700       5.66553
21.9682       254800       5.66419
21.9768       254900       5.66285
21.9854       255000       5.66151
21.9941       255100       5.66017
22.0027       255200       5.65883
22.0113       255300       5.65749
22.0199       255400       5.65615
22.0285       255500       5.65481
22.0372       255600       5.65347
22.0458       255700       5.65213
22.0544       255800       5.6508
22.063       255900       5.64946
22.0716       256000       5.64813
22.0803       256100       5.6468
22.0889       256200       5.64546
22.0975       256300       5.64413
22.1061       256400       5.6428
22.1148       256500       5.64147
22.1234       256600       5.64014
22.132       256700       5.63881
22.1406       256800       5.63748
22.1492       256900       5.63615
22.1579       257000       5.63482
22.1665       257100       5.63349
22.1751       257200       5.63217
22.1837       257300       5.63084
22.1924       257400       5.62952
22.201       257500       5.62819
22.2096       257600       5.62687
22.2182       257700       5.62555
22.2268       257800       5.62422
22.2355       257900       5.6229
22.2441       258000       5.62158
22.2527       258100       5.62026
22.2613       258200       5.61894
22.2699       258300       5.61762
22.2786       258400       5.61631
22.2872       258500       5.61499
22.2958       258600       5.61367
22.3044       258700       5.61235
22.3131       258800       5.61104
22.3217       258900       5.60972
22.3303       259000       5.60841
22.3389       259100       5.6071
22.3475       259200       5.60578
22.3562       259300       5.60447
22.3648       259400       5.60316
22.3734       259500       5.60185
22.382       259600       5.60054
22.3907       259700       5.59923
22.3993       259800       5.59792
22.4079       259900       5.59661
22.4165       260000       5.59531
22.4251       260100       5.594
22.4338       260200       5.59269
22.4424       260300       5.59139
22.451       260400       5.59008
22.4596       260500       5.58878
22.4682       260600       5.58748
22.4769       260700       5.58617
22.4855       260800       5.58487
22.4941       260900       5.58357
22.5027       261000       5.58227
22.5114       261100       5.58097
22.52       261200       5.57967
22.5286       261300       5.57837
22.5372       261400       5.57707
22.5458       261500       5.57577
22.5545       261600       5.57448
22.5631       261700       5.57318
22.5717       261800       5.57189
22.5803       261900       5.57059
22.589       262000       5.5693
22.5976       262100       5.568
22.6062       262200       5.56671
22.6148       262300       5.56542
22.6234       262400       5.56413
22.6321       262500       5.56284
22.6407       262600       5.56154
22.6493       262700       5.56026
22.6579       262800       5.55897
22.6665       262900       5.55768
22.6752       263000       5.55639
22.6838       263100       5.5551
22.6924       263200       5.55382
22.701       263300       5.55253
22.7097       263400       5.55125
22.7183       263500       5.54996
22.7269       263600       5.54868
22.7355       263700       5.54739
22.7441       263800       5.54611
22.7528       263900       5.54483
22.7614       264000       5.54355
22.77       264100       5.54227
22.7786       264200       5.54099
22.7873       264300       5.53971
22.7959       264400       5.53843
22.8045       264500       5.53715
22.8131       264600       5.53587
22.8217       264700       5.5346
22.8304       264800       5.53332
22.839       264900       5.53205
22.8476       265000       5.53077
22.8562       265100       5.5295
22.8648       265200       5.52822
22.8735       265300       5.52695
22.8821       265400       5.52568
22.8907       265500       5.52441
22.8993       265600       5.52314
22.908       265700       5.52187
22.9166       265800       5.5206
22.9252       265900       5.51933
22.9338       266000       5.51806
22.9424       266100       5.51679
22.9511       266200       5.51552
22.9597       266300       5.51426
22.9683       266400       5.51299
22.9769       266500       5.51172
22.9856       266600       5.51046
22.9942       266700       5.5092
23.0028       266800       5.50793
23.0114       266900       5.50667
23.02       267000       5.50541
23.0287       267100       5.50415
23.0373       267200       5.50289
23.0459       267300       5.50162
23.0545       267400       5.50037
23.0631       267500       5.49911
23.0718       267600       5.49785
23.0804       267700       5.49659
23.089       267800       5.49533
23.0976       267900       5.49408
23.1063       268000       5.49282
23.1149       268100       5.49156
23.1235       268200       5.49031
23.1321       268300       5.48906
23.1407       268400       5.4878
23.1494       268500       5.48655
23.158       268600       5.4853
23.1666       268700       5.48405
23.1752       268800       5.48279
23.1839       268900       5.48154
23.1925       269000       5.48029
23.2011       269100       5.47905
23.2097       269200       5.4778
23.2183       269300       5.47655
23.227       269400       5.4753
23.2356       269500       5.47405
23.2442       269600       5.47281
23.2528       269700       5.47156
23.2614       269800       5.47032
23.2701       269900       5.46907
23.2787       270000       5.46783
23.2873       270100       5.46659
23.2959       270200       5.46535
23.3046       270300       5.4641
23.3132       270400       5.46286
23.3218       270500       5.46162
23.3304       270600       5.46038
23.339       270700       5.45914
23.3477       270800       5.4579
23.3563       270900       5.45667
23.3649       271000       5.45543
23.3735       271100       5.45419
23.3822       271200       5.45295
23.3908       271300       5.45172
23.3994       271400       5.45048
23.408       271500       5.44925
23.4166       271600       5.44802
23.4253       271700       5.44678
23.4339       271800       5.44555
23.4425       271900       5.44432
23.4511       272000       5.44309
23.4597       272100       5.44185
23.4684       272200       5.44062
23.477       272300       5.43939
23.4856       272400       5.43817
23.4942       272500       5.43694
23.5029       272600       5.43571
23.5115       272700       5.43448
23.5201       272800       5.43325
23.5287       272900       5.43203
23.5373       273000       5.4308
23.546       273100       5.42958
23.5546       273200       5.42835
23.5632       273300       5.42713
23.5718       273400       5.42591
23.5805       273500       5.42468
23.5891       273600       5.42346
23.5977       273700       5.42224
23.6063       273800       5.42102
23.6149       273900       5.4198
23.6236       274000       5.41858
23.6322       274100       5.41736
23.6408       274200       5.41614
23.6494       274300       5.41492
23.658       274400       5.41371
23.6667       274500       5.41249
23.6753       274600       5.41127
23.6839       274700       5.41006
23.6925       274800       5.40884
23.7012       274900       5.40763
23.7098       275000       5.40642
23.7184       275100       5.4052
23.727       275200       5.40399
23.7356       275300       5.40278
23.7443       275400       5.40157
23.7529       275500       5.40036
23.7615       275600       5.39915
23.7701       275700       5.39794
23.7788       275800       5.39673
23.7874       275900       5.39552
23.796       276000       5.39431
23.8046       276100       5.3931
23.8132       276200       5.3919
23.8219       276300       5.39069
23.8305       276400       5.38949
23.8391       276500       5.38828
23.8477       276600       5.38708
23.8563       276700       5.38587
23.865       276800       5.38467
23.8736       276900       5.38347
23.8822       277000       5.38226
23.8908       277100       5.38106
23.8995       277200       5.37986
23.9081       277300       5.37866
23.9167       277400       5.37746
23.9253       277500       5.37626
23.9339       277600       5.37506
23.9426       277700       5.37386
23.9512       277800       5.37267
23.9598       277900       5.37147
23.9684       278000       5.37027
23.9771       278100       5.36908
23.9857       278200       5.36788
23.9943       278300       5.36669
24.0029       278400       5.36549
24.0115       278500       5.3643
24.0202       278600       5.36311
24.0288       278700       5.36192
24.0374       278800       5.36072
24.046       278900       5.35953
24.0546       279000       5.35834
24.0633       279100       5.35715
24.0719       279200       5.35596
24.0805       279300       5.35477
24.0891       279400       5.35358
24.0978       279500       5.3524
24.1064       279600       5.35121
24.115       279700       5.35002
24.1236       279800       5.34884
24.1322       279900       5.34765
24.1409       280000       5.34647
24.1495       280100       5.34528
24.1581       280200       5.3441
24.1667       280300       5.34291
24.1754       280400       5.34173
24.184       280500       5.34055
24.1926       280600       5.33937
24.2012       280700       5.33819
24.2098       280800       5.337
24.2185       280900       5.33582
24.2271       281000       5.33465
24.2357       281100       5.33347
24.2443       281200       5.33229
24.2529       281300       5.33111
24.2616       281400       5.32993
24.2702       281500       5.32876
24.2788       281600       5.32758
24.2874       281700       5.3264
24.2961       281800       5.32523
24.3047       281900       5.32405
24.3133       282000       5.32288
24.3219       282100       5.32171
24.3305       282200       5.32053
24.3392       282300       5.31936
24.3478       282400       5.31819
24.3564       282500       5.31702
24.365       282600       5.31585
24.3737       282700       5.31468
24.3823       282800       5.31351
24.3909       282900       5.31234
24.3995       283000       5.31117
24.4081       283100       5.31
24.4168       283200       5.30884
24.4254       283300       5.30767
24.434       283400       5.3065
24.4426       283500       5.30534
24.4512       283600       5.30417
24.4599       283700       5.30301
24.4685       283800       5.30184
24.4771       283900       5.30068
24.4857       284000       5.29952
24.4944       284100       5.29836
24.503       284200       5.29719
24.5116       284300       5.29603
24.5202       284400       5.29487
24.5288       284500       5.29371
24.5375       284600       5.29255
24.5461       284700       5.29139
24.5547       284800       5.29023
24.5633       284900       5.28908
24.572       285000       5.28792
24.5806       285100       5.28676
24.5892       285200       5.2856
24.5978       285300       5.28445
24.6064       285400       5.28329
24.6151       285500       5.28214
24.6237       285600       5.28098
24.6323       285700       5.27983
24.6409       285800       5.27868
24.6495       285900       5.27752
24.6582       286000       5.27637
24.6668       286100       5.27522
24.6754       286200       5.27407
24.684       286300       5.27292
24.6927       286400       5.27177
24.7013       286500       5.27062
24.7099       286600       5.26947
24.7185       286700       5.26832
24.7271       286800       5.26717
24.7358       286900       5.26603
24.7444       287000       5.26488
24.753       287100       5.26373
24.7616       287200       5.26259
24.7703       287300       5.26144
24.7789       287400       5.2603
24.7875       287500       5.25915
24.7961       287600       5.25801
24.8047       287700       5.25687
24.8134       287800       5.25572
24.822       287900       5.25458
24.8306       288000       5.25344
24.8392       288100       5.2523
24.8478       288200       5.25116
24.8565       288300       5.25002
24.8651       288400       5.24888
24.8737       288500       5.24774
24.8823       288600       5.2466
24.891       288700       5.24546
24.8996       288800       5.24433
24.9082       288900       5.24319
24.9168       289000       5.24205
24.9254       289100       5.24092
24.9341       289200       5.23978
24.9427       289300       5.23865
24.9513       289400       5.23751
24.9599       289500       5.23638
24.9686       289600       5.23525
24.9772       289700       5.23411
24.9858       289800       5.23298
24.9944       289900       5.23185
25.003       290000       5.23072
25.0117       290100       5.22959
25.0203       290200       5.22846
25.0289       290300       5.22733
25.0375       290400       5.2262
25.0461       290500       5.22507
25.0548       290600       5.22394
25.0634       290700       5.22281
25.072       290800       5.22169
25.0806       290900       5.22056
25.0893       291000       5.21943
25.0979       291100       5.21831
25.1065       291200       5.21718
25.1151       291300       5.21606
25.1237       291400       5.21494
25.1324       291500       5.21381
25.141       291600       5.21269
25.1496       291700       5.21157
25.1582       291800       5.21044
25.1669       291900       5.20932
25.1755       292000       5.2082
25.1841       292100       5.20708
25.1927       292200       5.20596
25.2013       292300       5.20484
25.21       292400       5.20372
25.2186       292500       5.20261
25.2272       292600       5.20149
25.2358       292700       5.20037
25.2444       292800       5.19925
25.2531       292900       5.19814
25.2617       293000       5.19702
25.2703       293100       5.19591
25.2789       293200       5.19479
25.2876       293300       5.19368
25.2962       293400       5.19256
25.3048       293500       5.19145
25.3134       293600       5.19034
25.322       293700       5.18923
25.3307       293800       5.18811
25.3393       293900       5.187
25.3479       294000       5.18589
25.3565       294100       5.18478
25.3652       294200       5.18367
25.3738       294300       5.18256
25.3824       294400       5.18145
25.391       294500       5.18035
25.3996       294600       5.17924
25.4083       294700       5.17813
25.4169       294800       5.17702
25.4255       294900       5.17592
25.4341       295000       5.17481
25.4427       295100       5.17371
25.4514       295200       5.1726
25.46       295300       5.1715
25.4686       295400       5.17039
25.4772       295500       5.16929
25.4859       295600       5.16819
25.4945       295700       5.16709
25.5031       295800       5.16598
25.5117       295900       5.16488
25.5203       296000       5.16378
25.529       296100       5.16268
25.5376       296200       5.16158
25.5462       296300       5.16048
25.5548       296400       5.15938
25.5635       296500       5.15828
25.5721       296600       5.15719
25.5807       296700       5.15609
25.5893       296800       5.15499
25.5979       296900       5.1539
25.6066       297000       5.1528
25.6152       297100       5.1517
25.6238       297200       5.15061
25.6324       297300       5.14952
25.641       297400       5.14842
25.6497       297500       5.14733
25.6583       297600       5.14624
25.6669       297700       5.14514
25.6755       297800       5.14405
25.6842       297900       5.14296
25.6928       298000       5.14187
25.7014       298100       5.14078
25.71       298200       5.13969
25.7186       298300       5.1386
25.7273       298400       5.13751
25.7359       298500       5.13642
25.7445       298600       5.13533
25.7531       298700       5.13424
25.7618       298800       5.13316
25.7704       298900       5.13207
25.779       299000       5.13099
25.7876       299100       5.1299
25.7962       299200       5.12881
25.8049       299300       5.12773
25.8135       299400       5.12665
25.8221       299500       5.12556
25.8307       299600       5.12448
25.8393       299700       5.1234
25.848       299800       5.12231
25.8566       299900       5.12123
25.8652       300000       5.12015
25.8738       300100       5.11907
25.8825       300200       5.11799
25.8911       300300       5.11691
25.8997       300400       5.11583
25.9083       300500       5.11475
25.9169       300600       5.11367
25.9256       300700       5.11259
25.9342       300800       5.11152
25.9428       300900       5.11044
25.9514       301000       5.10936
25.9601       301100       5.10829
25.9687       301200       5.10721
25.9773       301300       5.10614
25.9859       301400       5.10506
25.9945       301500       5.10399
26.0032       301600       5.10291
26.0118       301700       5.10184
26.0204       301800       5.10077
26.029       301900       5.09969
26.0376       302000       5.09862
26.0463       302100       5.09755
26.0549       302200       5.09648
26.0635       302300       5.09541
26.0721       302400       5.09434
26.0808       302500       5.09327
26.0894       302600       5.0922
26.098       302700       5.09113
26.1066       302800       5.09007
26.1152       302900       5.089
26.1239       303000       5.08793
26.1325       303100       5.08686
26.1411       303200       5.0858
26.1497       303300       5.08473
26.1584       303400       5.08367
26.167       303500       5.0826
26.1756       303600       5.08154
26.1842       303700       5.08047
26.1928       303800       5.07941
26.2015       303900       5.07835
26.2101       304000       5.07728
26.2187       304100       5.07622
26.2273       304200       5.07516
26.2359       304300       5.0741
26.2446       304400       5.07304
26.2532       304500       5.07198
26.2618       304600       5.07092
26.2704       304700       5.06986
26.2791       304800       5.0688
26.2877       304900       5.06774
26.2963       305000       5.06668
26.3049       305100       5.06563
26.3135       305200       5.06457
26.3222       305300       5.06351
26.3308       305400       5.06246
26.3394       305500       5.0614
26.348       305600       5.06035
26.3567       305700       5.05929
26.3653       305800       5.05824
26.3739       305900       5.05718
26.3825       306000       5.05613
26.3911       306100       5.05508
26.3998       306200       5.05403
26.4084       306300       5.05297
26.417       306400       5.05192
26.4256       306500       5.05087
26.4342       306600       5.04982
26.4429       306700       5.04877
26.4515       306800       5.04772
26.4601       306900       5.04667
26.4687       307000       5.04562
26.4774       307100       5.04458
26.486       307200       5.04353
26.4946       307300       5.04248
26.5032       307400       5.04143
26.5118       307500       5.04039
26.5205       307600       5.03934
26.5291       307700       5.0383
26.5377       307800       5.03725
26.5463       307900       5.03621
26.555       308000       5.03516
26.5636       308100       5.03412
26.5722       308200       5.03307
26.5808       308300       5.03203
26.5894       308400       5.03099
26.5981       308500       5.02995
26.6067       308600       5.02891
26.6153       308700       5.02786
26.6239       308800       5.02682
26.6325       308900       5.02578
26.6412       309000       5.02474
26.6498       309100       5.02371
26.6584       309200       5.02267
26.667       309300       5.02163
26.6757       309400       5.02059
26.6843       309500       5.01955
26.6929       309600       5.01852
26.7015       309700       5.01748
26.7101       309800       5.01644
26.7188       309900       5.01541
26.7274       310000       5.01437
26.736       310100       5.01334
26.7446       310200       5.0123
26.7533       310300       5.01127
26.7619       310400       5.01024
26.7705       310500       5.0092
26.7791       310600       5.00817
26.7877       310700       5.00714
26.7964       310800       5.00611
26.805       310900       5.00507
26.8136       311000       5.00404
26.8222       311100       5.00301
26.8308       311200       5.00198
26.8395       311300       5.00095
26.8481       311400       4.99992
26.8567       311500       4.9989
26.8653       311600       4.99787
26.874       311700       4.99684
26.8826       311800       4.99581
26.8912       311900       4.99479
26.8998       312000       4.99376
26.9084       312100       4.99273
26.9171       312200       4.99171
26.9257       312300       4.99068
26.9343       312400       4.98966
26.9429       312500       4.98863
26.9516       312600       4.98761
26.9602       312700       4.98659
26.9688       312800       4.98556
26.9774       312900       4.98454
26.986       313000       4.98352
26.9947       313100       4.9825
27.0033       313200       4.98148
27.0119       313300       4.98046
27.0205       313400       4.97944
27.0291       313500       4.97842
27.0378       313600       4.9774
27.0464       313700       4.97638
27.055       313800       4.97536
27.0636       313900       4.97434
27.0723       314000       4.97332
27.0809       314100       4.97231
27.0895       314200       4.97129
27.0981       314300       4.97027
27.1067       314400       4.96926
27.1154       314500       4.96824
27.124       314600       4.96722
27.1326       314700       4.96621
27.1412       314800       4.9652
27.1499       314900       4.96418
27.1585       315000       4.96317
27.1671       315100       4.96216
27.1757       315200       4.96114
27.1843       315300       4.96013
27.193       315400       4.95912
27.2016       315500       4.95811
27.2102       315600       4.9571
27.2188       315700       4.95609
27.2274       315800       4.95508
27.2361       315900       4.95407
27.2447       316000       4.95306
27.2533       316100       4.95205
27.2619       316200       4.95104
27.2706       316300       4.95003
27.2792       316400       4.94902
27.2878       316500       4.94802
27.2964       316600       4.94701
27.305       316700       4.946
27.3137       316800       4.945
27.3223       316900       4.94399
27.3309       317000       4.94299
27.3395       317100       4.94198
27.3482       317200       4.94098
27.3568       317300       4.93998
27.3654       317400       4.93897
27.374       317500       4.93797
27.3826       317600       4.93697
27.3913       317700       4.93597
27.3999       317800       4.93496
27.4085       317900       4.93396
27.4171       318000       4.93296
27.4257       318100       4.93196
27.4344       318200       4.93096
27.443       318300       4.92996
27.4516       318400       4.92896
27.4602       318500       4.92796
27.4689       318600       4.92697
27.4775       318700       4.92597
27.4861       318800       4.92497
27.4947       318900       4.92397
27.5033       319000       4.92298
27.512       319100       4.92198
27.5206       319200       4.92099
27.5292       319300       4.91999
27.5378       319400       4.919
27.5465       319500       4.918
27.5551       319600       4.91701
27.5637       319700       4.91601
27.5723       319800       4.91502
27.5809       319900       4.91403
27.5896       320000       4.91303
27.5982       320100       4.91204
27.6068       320200       4.91105
27.6154       320300       4.91006
27.624       320400       4.90907
27.6327       320500       4.90808
27.6413       320600       4.90709
27.6499       320700       4.9061
27.6585       320800       4.90511
27.6672       320900       4.90412
27.6758       321000       4.90313
27.6844       321100       4.90214
27.693       321200       4.90116
27.7016       321300       4.90017
27.7103       321400       4.89918
27.7189       321500       4.8982
27.7275       321600       4.89721
27.7361       321700       4.89623
27.7448       321800       4.89524
27.7534       321900       4.89426
27.762       322000       4.89327
27.7706       322100       4.89229
27.7792       322200       4.8913
27.7879       322300       4.89032
27.7965       322400       4.88934
27.8051       322500       4.88836
27.8137       322600       4.88737
27.8223       322700       4.88639
27.831       322800       4.88541
27.8396       322900       4.88443
27.8482       323000       4.88345
27.8568       323100       4.88247
27.8655       323200       4.88149
27.8741       323300       4.88051
27.8827       323400       4.87953
27.8913       323500       4.87856
27.8999       323600       4.87758
27.9086       323700       4.8766
27.9172       323800       4.87562
27.9258       323900       4.87465
27.9344       324000       4.87367
27.9431       324100       4.8727
27.9517       324200       4.87172
27.9603       324300       4.87074
27.9689       324400       4.86977
27.9775       324500       4.8688
27.9862       324600       4.86782
27.9948       324700       4.86685
28.0034       324800       4.86588
28.012       324900       4.8649
28.0206       325000       4.86393
28.0293       325100       4.86296
28.0379       325200       4.86199
28.0465       325300       4.86102
28.0551       325400       4.86005
28.0638       325500       4.85908
28.0724       325600       4.85811
28.081       325700       4.85714
28.0896       325800       4.85617
28.0982       325900       4.8552
28.1069       326000       4.85423
28.1155       326100       4.85326
28.1241       326200       4.8523
28.1327       326300       4.85133
28.1414       326400       4.85036
28.15       326500       4.8494
28.1586       326600       4.84843
28.1672       326700       4.84746
28.1758       326800       4.8465
28.1845       326900       4.84553
28.1931       327000       4.84457
28.2017       327100       4.84361
28.2103       327200       4.84264
28.2189       327300       4.84168
28.2276       327400       4.84072
28.2362       327500       4.83975
28.2448       327600       4.83879
28.2534       327700       4.83783
28.2621       327800       4.83687
28.2707       327900       4.83591
28.2793       328000       4.83495
28.2879       328100       4.83399
28.2965       328200       4.83303
28.3052       328300       4.83207
28.3138       328400       4.83111
28.3224       328500       4.83015
28.331       328600       4.82919
28.3397       328700       4.82824
28.3483       328800       4.82728
28.3569       328900       4.82632
28.3655       329000       4.82537
28.3741       329100       4.82441
28.3828       329200       4.82345
28.3914       329300       4.8225
28.4       329400       4.82154
28.4086       329500       4.82059
28.4172       329600       4.81964
28.4259       329700       4.81868
28.4345       329800       4.81773
28.4431       329900       4.81678
28.4517       330000       4.81582
28.4604       330100       4.81487
28.469       330200       4.81392
28.4776       330300       4.81297
28.4862       330400       4.81202
28.4948       330500       4.81107
28.5035       330600       4.81011
28.5121       330700       4.80916
28.5207       330800       4.80822
28.5293       330900       4.80727
28.538       331000       4.80632
28.5466       331100       4.80537
28.5552       331200       4.80442
28.5638       331300       4.80347
28.5724       331400       4.80253
28.5811       331500       4.80158
28.5897       331600       4.80063
28.5983       331700       4.79969
28.6069       331800       4.79874
28.6155       331900       4.79779
28.6242       332000       4.79685
28.6328       332100       4.79591
28.6414       332200       4.79496
28.65       332300       4.79402
28.6587       332400       4.79307
28.6673       332500       4.79213
28.6759       332600       4.79119
28.6845       332700       4.79025
28.6931       332800       4.7893
28.7018       332900       4.78836
28.7104       333000       4.78742
28.719       333100       4.78648
28.7276       333200       4.78554
28.7363       333300       4.7846
28.7449       333400       4.78366
28.7535       333500       4.78272
28.7621       333600       4.78178
28.7707       333700       4.78084
28.7794       333800       4.7799
28.788       333900       4.77897
28.7966       334000       4.77803
28.8052       334100       4.77709
28.8138       334200       4.77615
28.8225       334300       4.77522
28.8311       334400       4.77428
28.8397       334500       4.77335
28.8483       334600       4.77241
28.857       334700       4.77148
28.8656       334800       4.77054
28.8742       334900       4.76961
28.8828       335000       4.76867
28.8914       335100       4.76774
28.9001       335200       4.76681
28.9087       335300       4.76588
28.9173       335400       4.76494
28.9259       335500       4.76401
28.9346       335600       4.76308
28.9432       335700       4.76215
28.9518       335800       4.76122
28.9604       335900       4.76029
28.969       336000       4.75936
28.9777       336100       4.75843
28.9863       336200       4.7575
28.9949       336300       4.75657
29.0035       336400       4.75564
29.0121       336500       4.75471
29.0208       336600       4.75378
29.0294       336700       4.75286
29.038       336800       4.75193
29.0466       336900       4.751
29.0553       337000       4.75008
29.0639       337100       4.74915
29.0725       337200       4.74822
29.0811       337300       4.7473
29.0897       337400       4.74637
29.0984       337500       4.74545
29.107       337600       4.74453
29.1156       337700       4.7436
29.1242       337800       4.74268
29.1329       337900       4.74176
29.1415       338000       4.74083
29.1501       338100       4.73991
29.1587       338200       4.73899
29.1673       338300       4.73807
29.176       338400       4.73715
29.1846       338500       4.73622
29.1932       338600       4.7353
29.2018       338700       4.73438
29.2104       338800       4.73346
29.2191       338900       4.73254
29.2277       339000       4.73162
29.2363       339100       4.73071
29.2449       339200       4.72979
29.2536       339300       4.72887
29.2622       339400       4.72795
29.2708       339500       4.72703
29.2794       339600       4.72612
29.288       339700       4.7252
29.2967       339800       4.72428
29.3053       339900       4.72337
29.3139       340000       4.72245
29.3225       340100       4.72154
29.3312       340200       4.72062
29.3398       340300       4.71971
29.3484       340400       4.71879
29.357       340500       4.71788
29.3656       340600       4.71697
29.3743       340700       4.71605
29.3829       340800       4.71514
29.3915       340900       4.71423
29.4001       341000       4.71332
29.4087       341100       4.71241
29.4174       341200       4.71149
29.426       341300       4.71058
29.4346       341400       4.70967
29.4432       341500       4.70876
29.4519       341600       4.70785
29.4605       341700       4.70694
29.4691       341800       4.70603
29.4777       341900       4.70513
29.4863       342000       4.70422
29.495       342100       4.70331
29.5036       342200       4.7024
29.5122       342300       4.70149
29.5208       342400       4.70059
29.5295       342500       4.69968
29.5381       342600       4.69877
29.5467       342700       4.69787
29.5553       342800       4.69696
29.5639       342900       4.69606
29.5726       343000       4.69515
29.5812       343100       4.69425
29.5898       343200       4.69334
29.5984       343300       4.69244
29.607       343400       4.69154
29.6157       343500       4.69063
29.6243       343600       4.68973
29.6329       343700       4.68883
29.6415       343800       4.68793
29.6502       343900       4.68702
29.6588       344000       4.68612
29.6674       344100       4.68522
29.676       344200       4.68432
29.6846       344300       4.68342
29.6933       344400       4.68252
29.7019       344500       4.68162
29.7105       344600       4.68072
29.7191       344700       4.67982
29.7278       344800       4.67892
29.7364       344900       4.67803
29.745       345000       4.67713
29.7536       345100       4.67623
29.7622       345200       4.67533
29.7709       345300       4.67444
29.7795       345400       4.67354
29.7881       345500       4.67264
29.7967       345600       4.67175
29.8053       345700       4.67085
29.814       345800       4.66996
29.8226       345900       4.66906
29.8312       346000       4.66817
29.8398       346100       4.66727
29.8485       346200       4.66638
29.8571       346300       4.66549
29.8657       346400       4.66459
29.8743       346500       4.6637
29.8829       346600       4.66281
29.8916       346700       4.66192
29.9002       346800       4.66103
29.9088       346900       4.66013
29.9174       347000       4.65924
29.9261       347100       4.65835
29.9347       347200       4.65746
29.9433       347300       4.65657
29.9519       347400       4.65568
29.9605       347500       4.65479
29.9692       347600       4.6539
29.9778       347700       4.65302
29.9864       347800       4.65213
29.995       347900       4.65124
30.0036       348000       4.65035
30.0123       348100       4.64946
30.0209       348200       4.64858
30.0295       348300       4.64769
30.0381       348400       4.6468
30.0468       348500       4.64592
30.0554       348600       4.64503
30.064       348700       4.64415
30.0726       348800       4.64326
30.0812       348900       4.64238
30.0899       349000       4.64149
30.0985       349100       4.64061
30.1071       349200       4.63973
30.1157       349300       4.63884
30.1244       349400       4.63796
30.133       349500       4.63708
30.1416       349600       4.6362
30.1502       349700       4.63531
30.1588       349800       4.63443
30.1675       349900       4.63355
30.1761       350000       4.63267
30.1847       350100       4.63179
30.1933       350200       4.63091
30.2019       350300       4.63003
30.2106       350400       4.62915
30.2192       350500       4.62827
30.2278       350600       4.62739
30.2364       350700       4.62651
30.2451       350800       4.62564
30.2537       350900       4.62476
30.2623       351000       4.62388
30.2709       351100       4.623
30.2795       351200       4.62213
30.2882       351300       4.62125
30.2968       351400       4.62037
30.3054       351500       4.6195
30.314       351600       4.61862
30.3227       351700       4.61775
30.3313       351800       4.61687
30.3399       351900       4.616
30.3485       352000       4.61512
30.3571       352100       4.61425
30.3658       352200       4.61338
30.3744       352300       4.6125
30.383       352400       4.61163
30.3916       352500       4.61076
30.4002       352600       4.60989
30.4089       352700       4.60901
30.4175       352800       4.60814
30.4261       352900       4.60727
30.4347       353000       4.6064
30.4434       353100       4.60553
30.452       353200       4.60466
30.4606       353300       4.60379
30.4692       353400       4.60292
30.4778       353500       4.60205
30.4865       353600       4.60118
30.4951       353700       4.60031
30.5037       353800       4.59944
30.5123       353900       4.59858
30.521       354000       4.59771
30.5296       354100       4.59684
30.5382       354200       4.59597
30.5468       354300       4.59511
30.5554       354400       4.59424
30.5641       354500       4.59338
30.5727       354600       4.59251
30.5813       354700       4.59164
30.5899       354800       4.59078
30.5985       354900       4.58991
30.6072       355000       4.58905
30.6158       355100       4.58819
30.6244       355200       4.58732
30.633       355300       4.58646
30.6417       355400       4.5856
30.6503       355500       4.58473
30.6589       355600       4.58387
30.6675       355700       4.58301
30.6761       355800       4.58215
30.6848       355900       4.58129
30.6934       356000       4.58042
30.702       356100       4.57956
30.7106       356200       4.5787
30.7193       356300       4.57784
30.7279       356400       4.57698
30.7365       356500       4.57612
30.7451       356600       4.57526
30.7537       356700       4.57441
30.7624       356800       4.57355
30.771       356900       4.57269
30.7796       357000       4.57183
30.7882       357100       4.57097
30.7968       357200       4.57012
30.8055       357300       4.56926
30.8141       357400       4.5684
30.8227       357500       4.56755
30.8313       357600       4.56669
30.84       357700       4.56583
30.8486       357800       4.56498
30.8572       357900       4.56412
30.8658       358000       4.56327
30.8744       358100       4.56241
30.8831       358200       4.56156
30.8917       358300       4.56071
30.9003       358400       4.55985
30.9089       358500       4.559
30.9176       358600       4.55815
30.9262       358700       4.5573
30.9348       358800       4.55644
30.9434       358900       4.55559
30.952       359000       4.55474
30.9607       359100       4.55389
30.9693       359200       4.55304
30.9779       359300       4.55219
30.9865       359400       4.55134
30.9951       359500       4.55049
31.0038       359600       4.54964
31.0124       359700       4.54879
31.021       359800       4.54794
31.0296       359900       4.54709
31.0383       360000       4.54624
31.0469       360100       4.54539
31.0555       360200       4.54455
31.0641       360300       4.5437
31.0727       360400       4.54285
31.0814       360500       4.542
31.09       360600       4.54116
31.0986       360700       4.54031
31.1072       360800       4.53947
31.1159       360900       4.53862
31.1245       361000       4.53777
31.1331       361100       4.53693
31.1417       361200       4.53608
31.1503       361300       4.53524
31.159       361400       4.5344
31.1676       361500       4.53355
31.1762       361600       4.53271
31.1848       361700       4.53187
31.1934       361800       4.53102
31.2021       361900       4.53018
31.2107       362000       4.52934
31.2193       362100       4.5285
31.2279       362200       4.52766
31.2366       362300       4.52681
31.2452       362400       4.52597
31.2538       362500       4.52513
31.2624       362600       4.52429
31.271       362700       4.52345
31.2797       362800       4.52261
31.2883       362900       4.52177
31.2969       363000       4.52093
31.3055       363100       4.5201
31.3142       363200       4.51926
31.3228       363300       4.51842
31.3314       363400       4.51758
31.34       363500       4.51674
31.3486       363600       4.51591
31.3573       363700       4.51507
31.3659       363800       4.51423
31.3745       363900       4.5134
31.3831       364000       4.51256
31.3917       364100       4.51172
31.4004       364200       4.51089
31.409       364300       4.51005
31.4176       364400       4.50922
31.4262       364500       4.50839
31.4349       364600       4.50755
31.4435       364700       4.50672
31.4521       364800       4.50588
31.4607       364900       4.50505
31.4693       365000       4.50422
31.478       365100       4.50338
31.4866       365200       4.50255
31.4952       365300       4.50172
31.5038       365400       4.50089
31.5125       365500       4.50006
31.5211       365600       4.49923
31.5297       365700       4.4984
31.5383       365800       4.49756
31.5469       365900       4.49673
31.5556       366000       4.4959
31.5642       366100       4.49508
31.5728       366200       4.49425
31.5814       366300       4.49342
31.59       366400       4.49259
31.5987       366500       4.49176
31.6073       366600       4.49093
31.6159       366700       4.4901
31.6245       366800       4.48928
31.6332       366900       4.48845
31.6418       367000       4.48762
31.6504       367100       4.4868
31.659       367200       4.48597
31.6676       367300       4.48514
31.6763       367400       4.48432
31.6849       367500       4.48349
31.6935       367600       4.48267
31.7021       367700       4.48184
31.7108       367800       4.48102
31.7194       367900       4.48019
31.728       368000       4.47937
31.7366       368100       4.47855
31.7452       368200       4.47772
31.7539       368300       4.4769
31.7625       368400       4.47608
31.7711       368500       4.47525
31.7797       368600       4.47443
31.7883       368700       4.47361
31.797       368800       4.47279
31.8056       368900       4.47197
31.8142       369000       4.47115
31.8228       369100       4.47033
31.8315       369200       4.46951
31.8401       369300       4.46869
31.8487       369400       4.46787
31.8573       369500       4.46705
31.8659       369600       4.46623
31.8746       369700       4.46541
31.8832       369800       4.46459
31.8918       369900       4.46377
31.9004       370000       4.46295
31.9091       370100       4.46214
31.9177       370200       4.46132
31.9263       370300       4.4605
31.9349       370400       4.45969
31.9435       370500       4.45887
31.9522       370600       4.45805
31.9608       370700       4.45724
31.9694       370800       4.45642
31.978       370900       4.45561
31.9866       371000       4.45479
31.9953       371100       4.45398
32.0039       371200       4.45316
32.0125       371300       4.45235
32.0211       371400       4.45153
32.0298       371500       4.45072
32.0384       371600       4.44991
32.047       371700       4.44909
32.0556       371800       4.44828
32.0642       371900       4.44747
32.0729       372000       4.44666
32.0815       372100       4.44584
32.0901       372200       4.44503
32.0987       372300       4.44422
32.1074       372400       4.44341
32.116       372500       4.4426
32.1246       372600       4.44179
32.1332       372700       4.44098
32.1418       372800       4.44017
32.1505       372900       4.43936
32.1591       373000       4.43855
32.1677       373100       4.43774
32.1763       373200       4.43693
32.1849       373300       4.43613
32.1936       373400       4.43532
32.2022       373500       4.43451
32.2108       373600       4.4337
32.2194       373700       4.4329
32.2281       373800       4.43209
32.2367       373900       4.43128
32.2453       374000       4.43048
32.2539       374100       4.42967
32.2625       374200       4.42886
32.2712       374300       4.42806
32.2798       374400       4.42725
32.2884       374500       4.42645
32.297       374600       4.42564
32.3057       374700       4.42484
32.3143       374800       4.42404
32.3229       374900       4.42323
32.3315       375000       4.42243
32.3401       375100       4.42162
32.3488       375200       4.42082
32.3574       375300       4.42002
32.366       375400       4.41922
32.3746       375500       4.41842
32.3832       375600       4.41761
32.3919       375700       4.41681
32.4005       375800       4.41601
32.4091       375900       4.41521
32.4177       376000       4.41441
32.4264       376100       4.41361
32.435       376200       4.41281
32.4436       376300       4.41201
32.4522       376400       4.41121
32.4608       376500       4.41041
32.4695       376600       4.40961
32.4781       376700       4.40881
32.4867       376800       4.40801
32.4953       376900       4.40722
32.504       377000       4.40642
32.5126       377100       4.40562
32.5212       377200       4.40482
32.5298       377300       4.40403
32.5384       377400       4.40323
32.5471       377500       4.40243
32.5557       377600       4.40164
32.5643       377700       4.40084
32.5729       377800       4.40005
32.5815       377900       4.39925
32.5902       378000       4.39846
32.5988       378100       4.39766
32.6074       378200       4.39687
32.616       378300       4.39607
32.6247       378400       4.39528
32.6333       378500       4.39449
32.6419       378600       4.39369
32.6505       378700       4.3929
32.6591       378800       4.39211
32.6678       378900       4.39131
32.6764       379000       4.39052
32.685       379100       4.38973
32.6936       379200       4.38894
32.7023       379300       4.38815
32.7109       379400       4.38736
32.7195       379500       4.38657
32.7281       379600       4.38578
32.7367       379700       4.38499
32.7454       379800       4.3842
32.754       379900       4.38341
32.7626       380000       4.38262
32.7712       380100       4.38183
32.7798       380200       4.38104
32.7885       380300       4.38025
32.7971       380400       4.37946
32.8057       380500       4.37867
32.8143       380600       4.37789
32.823       380700       4.3771
32.8316       380800       4.37631
32.8402       380900       4.37552
32.8488       381000       4.37474
32.8574       381100       4.37395
32.8661       381200       4.37317
32.8747       381300       4.37238
32.8833       381400       4.37159
32.8919       381500       4.37081
32.9006       381600       4.37002
32.9092       381700       4.36924
32.9178       381800       4.36845
32.9264       381900       4.36767
32.935       382000       4.36689
32.9437       382100       4.3661
32.9523       382200       4.36532
32.9609       382300       4.36454
32.9695       382400       4.36375
32.9781       382500       4.36297
32.9868       382600       4.36219
32.9954       382700       4.36141
33.004       382800       4.36063
33.0126       382900       4.35984
33.0213       383000       4.35906
33.0299       383100       4.35828
33.0385       383200       4.3575
33.0471       383300       4.35672
33.0557       383400       4.35594
33.0644       383500       4.35516
33.073       383600       4.35438
33.0816       383700       4.3536
33.0902       383800       4.35282
33.0989       383900       4.35205
33.1075       384000       4.35127
33.1161       384100       4.35049
33.1247       384200       4.34971
33.1333       384300       4.34893
33.142       384400       4.34816
33.1506       384500       4.34738
33.1592       384600       4.3466
33.1678       384700       4.34583
33.1764       384800       4.34505
33.1851       384900       4.34427
33.1937       385000       4.3435
33.2023       385100       4.34272
33.2109       385200       4.34195
33.2196       385300       4.34117
33.2282       385400       4.3404
33.2368       385500       4.33962
33.2454       385600       4.33885
33.254       385700       4.33807
33.2627       385800       4.3373
33.2713       385900       4.33653
33.2799       386000       4.33575
33.2885       386100       4.33498
33.2972       386200       4.33421
33.3058       386300       4.33344
33.3144       386400       4.33267
33.323       386500       4.33189
33.3316       386600       4.33112
33.3403       386700       4.33035
33.3489       386800       4.32958
33.3575       386900       4.32881
33.3661       387000       4.32804
33.3747       387100       4.32727
33.3834       387200       4.3265
33.392       387300       4.32573
33.4006       387400       4.32496
33.4092       387500       4.32419
33.4179       387600       4.32342
33.4265       387700       4.32265
33.4351       387800       4.32189
33.4437       387900       4.32112
33.4523       388000       4.32035
33.461       388100       4.31958
33.4696       388200       4.31882
33.4782       388300       4.31805
33.4868       388400       4.31728
33.4955       388500       4.31652
33.5041       388600       4.31575
33.5127       388700       4.31498
33.5213       388800       4.31422
33.5299       388900       4.31345
33.5386       389000       4.31269
33.5472       389100       4.31192
33.5558       389200       4.31116
33.5644       389300       4.31039
33.573       389400       4.30963
33.5817       389500       4.30887
33.5903       389600       4.3081
33.5989       389700       4.30734
33.6075       389800       4.30658
33.6162       389900       4.30581
33.6248       390000       4.30505
33.6334       390100       4.30429
33.642       390200       4.30353
33.6506       390300       4.30276
33.6593       390400       4.302
33.6679       390500       4.30124
33.6765       390600       4.30048
33.6851       390700       4.29972
33.6938       390800       4.29896
33.7024       390900       4.2982
33.711       391000       4.29744
33.7196       391100       4.29668
33.7282       391200       4.29592
33.7369       391300       4.29516
33.7455       391400       4.2944
33.7541       391500       4.29364
33.7627       391600       4.29289
33.7713       391700       4.29213
33.78       391800       4.29137
33.7886       391900       4.29061
33.7972       392000       4.28986
33.8058       392100       4.2891
33.8145       392200       4.28834
33.8231       392300       4.28759
33.8317       392400       4.28683
33.8403       392500       4.28607
33.8489       392600       4.28532
33.8576       392700       4.28456
33.8662       392800       4.28381
33.8748       392900       4.28305
33.8834       393000       4.2823
33.8921       393100       4.28154
33.9007       393200       4.28079
33.9093       393300       4.28003
33.9179       393400       4.27928
33.9265       393500       4.27853
33.9352       393600       4.27777
33.9438       393700       4.27702
33.9524       393800       4.27627
33.961       393900       4.27552
33.9696       394000       4.27476
33.9783       394100       4.27401
33.9869       394200       4.27326
33.9955       394300       4.27251
34.0041       394400       4.27176
34.0128       394500       4.27101
34.0214       394600       4.27026
34.03       394700       4.26951
34.0386       394800       4.26876
34.0472       394900       4.26801
34.0559       395000       4.26726
34.0645       395100       4.26651
34.0731       395200       4.26576
34.0817       395300       4.26501
34.0904       395400       4.26426
34.099       395500       4.26351
34.1076       395600       4.26276
34.1162       395700       4.26202
34.1248       395800       4.26127
34.1335       395900       4.26052
34.1421       396000       4.25977
34.1507       396100       4.25903
34.1593       396200       4.25828
34.1679       396300       4.25753
34.1766       396400       4.25679
34.1852       396500       4.25604
34.1938       396600       4.2553
34.2024       396700       4.25455
34.2111       396800       4.25381
34.2197       396900       4.25306
34.2283       397000       4.25232
34.2369       397100       4.25157
34.2455       397200       4.25083
34.2542       397300       4.25009
34.2628       397400       4.24934
34.2714       397500       4.2486
34.28       397600       4.24786
34.2887       397700       4.24711
34.2973       397800       4.24637
34.3059       397900       4.24563
34.3145       398000       4.24489
34.3231       398100       4.24414
34.3318       398200       4.2434
34.3404       398300       4.24266
34.349       398400       4.24192
34.3576       398500       4.24118
34.3662       398600       4.24044
34.3749       398700       4.2397
34.3835       398800       4.23896
34.3921       398900       4.23822
34.4007       399000       4.23748
34.4094       399100       4.23674
34.418       399200       4.236
34.4266       399300       4.23526
34.4352       399400       4.23452
34.4438       399500       4.23378
34.4525       399600       4.23305
34.4611       399700       4.23231
34.4697       399800       4.23157
34.4783       399900       4.23083
34.487       400000       4.2301
